#Wave		#Intensity
2188.298828	1175.830444	1413.000854	1055.575073	1235.95813	1154.117676	1124.053833	1189.192261	1331.1604
2186.748047	1232.617798	1389.617798	1150.777344	1276.043335	1167.47937	1190.862427	1172.490112	1397.968872
2185.197266	1257.368408	1352.547607	1115.434326	1198.924927	1157.179688	1130.462646	1203.934326	1365.906128
2183.645508	1238.702271	1390.61853	1056.736572	1232.024536	1118.504761	1120.174072	1203.644653	1327.180908
2182.09375	1261.770142	1330.199463	1046.46814	1210.030884	1151.615601	1074.841187	1193.34082	1265.108154
2180.541992	1198.059204	1379.937378	1077.919556	1241.442993	1126.309204	1168.024292	1153.006836	1341.559326
2178.989258	1192.765991	1327.890625	1097.678345	1231.134766	1147.724487	1092.673828	1166.074829	1347.909058
2177.436523	1189.143066	1374.269043	1052.383301	1200.817627	1097.41394	1104.085083	1197.482056	1322.567261
2175.882813	1222.204468	1370.603027	1058.799194	1247.215454	1173.849854	1083.810181	1150.506226	1335.587646
2174.329102	1175.233765	1313.594727	1050.208984	1226.910767	1148.56189	1158.563843	1175.233765	1308.593628
2172.775391	1213.282104	1299.945068	1019.95697	1201.615967	1141.61853	1119.952759	1148.284912	1299.945068
2171.220703	1158.005005	1349.61731	1041.37146	1211.323242	1184.664185	1106.353027	1201.32605	1254.644287
2169.666016	1169.386108	1347.625854	1067.772827	1239.349365	1164.388794	1129.407104	1114.415039	1279.328369
2168.110352	1214.069458	1393.931519	1107.484497	1255.704224	1140.792236	1089.165161	1149.119263	1290.677368
2166.554688	1153.836792	1315.340576	1098.89209	1208.781372	1160.496704	1143.846802	1127.196899	1262.060913
2164.999023	1226.799805	1293.383301	1048.689209	1200.166504	1136.912231	1105.285034	1161.880981	1248.439453
2163.442383	1183.234741	1288.078247	1091.70459	1248.137939	1149.95105	1129.980835	1148.286865	1303.055908
2161.885742	1141.354248	1375.94751	1016.570618	1224.543335	1124.716431	1099.759766	1124.716431	1256.155151
2160.329102	1192.643188	1358.981079	1114.464355	1220.920654	1159.37561	1116.127686	1204.286743	1252.52478
2158.771484	1174.062012	1340.359741	1075.946411	1212.310547	1105.880005	1114.194824	1195.680786	1317.078125
2157.213867	1118.913086	1350.011108	1082.336426	1235.293335	1138.864014	1148.839478	1143.851685	1250.256592
2155.655273	1180.142822	1339.711426	1088.723267	1254.940552	1108.669434	1118.642456	1153.548096	1253.278442
2154.09668	1194.813232	1379.269775	1080.151001	1243.004517	1118.371704	1106.73938	1131.665894	1312.79895
2152.538086	1197.84668	1337.401611	1091.519165	1211.137695	1031.709839	1138.037476	1109.794189	1292.544678
2150.978516	1157.693481	1295.553711	1026.477173	1219.149292	1112.847412	1071.323242	1157.693481	1317.14624
2149.418945	1135.825806	1353.359619	1044.494751	1220.514526	1132.504639	1059.439819	1147.449707	1271.992065
2147.859375	1105.667725	1359.672485	1035.940918	1177.054688	1135.550659	1069.144165	1125.5896	1334.77002
2146.298828	1148.553589	1322.828247	1057.266724	1136.935181	1113.698608	1088.802246	1175.109741	1317.848999
2144.737305	1224.605591	1272.726929	1005.570435	1164.868652	1110.109863	1073.604004	1135.000244	1264.430176
2143.176758	1152.973633	1366.97876	995.372864	1240.898193	1121.453491	1056.75415	1161.268311	1272.418335
2141.615234	1180.889404	1373.281372	1031.619629	1197.474854	1092.986084	1044.888062	1147.718262	1341.768921
2140.052734	1173.970215	1336.468994	1049.609009	1182.260986	1114.276855	1094.379028	1129.200195	1270.142944
2138.490234	1147.161377	1307.963013	1051.012085	1241.653076	1087.482544	1055.985352	1080.851563	1268.177002
2136.927734	1171.743164	1327.533569	1014.295349	1146.882935	1092.190552	1062.358398	1118.70813	1234.72229
2135.364258	1131.692017	1265.904419	1010.735168	1148.261475	1118.436523	1125.064209	1131.692017	1255.962769
2133.800781	1169.517578	1287.131958	1051.903198	1176.143799	1096.629883	1106.569092	1124.791016	1255.657715
2132.237305	1131.142334	1295.099976	1083.114258	1174.201904	1117.893188	1136.110718	1139.422974	1222.229858
2130.672852	1150.736328	1279.883667	1000.064331	1223.588623	1096.097046	1013.310242	1145.769043	1255.047607
2129.108398	1173.631226	1320.955933	1024.651245	1233.223267	1084.243286	1112.383911	1163.699219	1256.397949
2127.542969	1178.310669	1292.500854	1054.190918	1186.585327	1097.219116	1098.874023	1136.937378	1262.712158
2125.977539	1138.31543	1340.167847	1082.061523	1222.696411	1070.479736	1096.952271	1163.133301	1278.950317
2124.412109	1212.474121	1276.985107	1040.445068	1229.015381	1095.03125	1040.445068	1172.775146	1253.827271
2122.845703	1197.295654	1336.208374	1020.347229	1212.179199	1142.722778	1091.457397	1170.83606	1327.939819
2121.279297	1197.00415	1349.109741	1054.818604	1197.00415	1125.911377	1092.844971	1188.737549	1269.750366
2119.712891	1229.771118	1285.970337	1003.32135	1200.018555	1090.926025	1084.314331	1145.47229	1266.135376
2118.145508	1181.548706	1269.13208	1055.95752	1173.286133	1110.490479	1055.95752	1161.718506	1280.699585
2116.577148	1135.001709	1283.691895	1021.00592	1173.000244	1123.43689	1047.439697	1080.481934	1263.866577
2115.009766	1189.231567	1349.44751	1045.532715	1159.500854	1142.983643	1093.432373	1189.231567	1303.199585
2113.441406	1136.099854	1288.020264	1116.28418	1167.474731	1103.07373	1131.145996	1177.382568	1246.737549
2111.87207	1127.568359	1264.593506	1045.023071	1170.491943	1097.852051	1125.91748	1140.775635	1299.262573
2110.302734	1170.206421	1340.208252	1038.16626	1183.410522	1067.875244	1109.137817	1112.438843	1234.57605
2108.733398	1145.169556	1306.879272	1024.712158	1140.219238	1077.515381	1133.618774	1156.720215	1334.93103
2107.163086	1169.635498	1276.865845	1052.50708	1182.83313	1134.991943	1108.596802	1097.048828	1309.859863
2105.592773	1136.364136	1274.904907	1022.562866	1166.051514	1083.586792	1093.482544	1144.610718	1232.023315
2104.022461	1180.606812	1279.540405	1065.184448	1162.468994	1159.171265	1076.726685	1141.033447	1315.81604
2102.451172	1155.591187	1297.361328	1040.196899	1216.585327	1091.300171	1083.057617	1122.62146	1292.415894
2100.879883	1130.587646	1298.692505	987.204102	1208.047729	1046.535156	1076.200806	1119.051025	1267.378906
2099.307617	1197.866455	1283.546021	1051.222534	1191.275757	1102.300781	1082.528564	1100.653076	1237.410889
2097.735352	1130.035156	1265.112305	1077.322144	1141.566162	1123.446045	1072.380249	1116.856934	1279.937744
2096.163086	1109.996338	1310.915527	1021.06488	1226.924805	1106.702637	1078.705688	1073.765015	1348.793823
2094.589844	1198.634644	1320.473877	1032.340576	1154.17981	1149.240356	1070.209473	1065.270142	1233.210693
2093.016602	1117.683838	1267.476563	1060.071289	1198.341431	1051.840942	1069.947754	1150.605347	1244.431519
2091.442383	1166.780518	1334.638916	1051.583618	1166.780518	1123.993164	1063.103271	1143.741211	1295.142822
2089.868164	1163.204468	1322.79541	1095.748535	1164.849731	1099.039063	1052.971558	1136.880127	1224.079346
2088.293945	1192.527344	1274.77063	1041.199707	1174.433838	1080.676514	1085.611084	1126.732666	1287.929443
2086.71875	1152.768188	1262.947144	1034.366943	1187.30188	1070.545044	1065.611694	1174.14624	1287.614136
2085.143555	1126.180908	1330.044312	1057.130371	1178.790894	1104.808105	1065.350708	1160.706177	1237.976929
2083.567383	1139.054321	1275.477783	1028.929321	1222.880737	1088.100952	1063.446045	1112.755737	1232.742676
2081.991211	1135.488647	1255.446167	1035.250122	1214.364868	1074.688232	1046.75293	1115.769653	1237.370361
2080.415039	1117.138916	1279.78125	1056.353516	1194.353027	1102.353271	1097.424683	1080.996216	1289.638306
2078.837891	1157.92627	1318.88623	1080.731201	1167.781006	1049.524658	1039.669922	1069.234009	1226.909058
2077.260742	1147.790039	1293.932129	1078.824097	1164.210449	1060.761597	1083.750244	1164.210449	1279.153687
2075.682617	1190.191162	1306.747803	1040.801636	1188.549561	1076.917847	1070.351196	1113.033936	1257.498535
2074.104492	1170.204224	1321.198364	999.515259	1184.975464	1086.500977	1065.164917	1134.096924	1278.526123
2072.526367	1166.635376	1306.106567	1078.030151	1178.121216	1059.980957	1059.980957	1128.896118	1274.930664
2070.947266	1115.495483	1318.909424	1046.59729	1145.023315	1100.731567	1102.37207	1113.855103	1279.53894
2069.368164	1149.662231	1254.624268	1015.179626	1152.942261	1129.981812	1061.100464	1131.621826	1282.504761
2067.789063	1132.983521	1265.793457	1032.966187	1101.830566	1088.713501	1095.272095	1105.109863	1280.550171
2066.208984	1158.932739	1281.874756	1067.136108	1190.078125	1065.496948	1076.971436	1083.528442	1316.298462
2064.62793	1116.038574	1320.891479	1047.208008	1188.146729	1089.817383	1055.4021	1129.14917	1350.390259
2063.047852	1140.340576	1292.713623	1009.266907	1233.730469	1107.572144	1063.334717	1140.340576	1240.28418
2061.46582	1154.802246	1300.585815	1015.570801	1228.513062	1095.833618	1048.331177	1102.385742	1289.119751
2059.884766	1164.343994	1267.513672	1052.986206	1174.169678	1054.623779	1084.10083	1161.068726	1249.499878
2058.302734	1108.392334	1304.857666	1047.81543	1208.262207	1078.922485	1087.108521	1121.48999	1260.652954
2056.720703	1116.303589	1279.984497	1054.104858	1155.587036	1054.104858	1052.468018	1152.313354	1270.163574
2055.137695	1171.666626	1297.6698	1032.572144	1184.757813	1026.026489	1073.4823	1142.211304	1251.850464
2053.554688	1155.018066	1272.810303	1086.30603	1217.186157	1083.033936	1032.317871	1130.478027	1290.806396
2051.970703	1171.0896	1262.683228	1014.072021	1202.166016	1041.877197	1064.775635	1171.0896	1277.403687
2050.386719	1147.908447	1308.157715	1033.44458	1154.449219	1064.513306	1087.406128	1151.178833	1290.170532
2048.802734	1162.338745	1316.009399	1039.729126	1163.973511	1074.059814	1080.598999	1126.373291	1289.852661
2047.217773	1139.170776	1263.384521	1039.4729	1198.008789	1095.042236	1075.429443	1109.751709	1296.072266
2045.632813	1176.47168	1274.510986	1011.438843	1227.125244	1042.484619	1066.994385	1120.916016	1274.510986
2044.047852	1153.311279	1321.570679	1061.830566	1185.983032	1073.265625	1019.3573	1102.670166	1244.792114
2042.461914	1133.428711	1244.485107	1002.774048	1159.55957	1066.46814	1058.302246	1081.16687	1247.751465
2040.875	1152.742432	1299.692505	1048.244507	1173.968506	1062.939453	1067.837891	1118.453979	1245.810791
2039.289063	1111.648438	1260.194824	1087.162842	1183.473022	1152.457886	1039.823975	1139.398926	1217.75293
2037.702148	1147.277466	1225.612305	1029.775391	1199.500732	1124.429932	1049.359131	1096.686279	1248.459839
2036.114258	1169.836182	1220.414917	1075.205078	1204.099243	1086.626099	1063.78418	1158.415283	1241.625366
2034.526367	1164.653809	1282.0979	1060.259033	1231.531738	1101.038208	1104.300659	1185.859009	1272.310913
2032.938477	1126.858521	1270.365845	1015.966492	1219.812134	1081.197144	1051.843384	1144.796875	1263.842773
2031.349609	1149.405151	1294.507324	1067.887085	1146.144409	1115.16748	1095.603149	1108.646118	1212.989258
2029.760742	1132.821411	1302.337158	1069.253052	1158.900757	1049.693604	1093.702393	1129.561523	1235.508911
2028.170898	1183.057617	1324.828979	1023.361145	1187.946289	1036.397583	1067.359131	1143.948242	1326.458496
2026.581055	1212.089844	1256.076904	1067.095215	1190.910889	1093.161621	1080.128418	1135.519653	1321.243042
2024.991211	1167.813721	1263.910034	1104.29248	1174.328735	1097.777466	1099.40625	1114.065063	1231.334961
2023.400391	1146.356323	1258.71228	1100.762573	1182.179932	1097.505859	1128.444458	1125.187744	1286.394165
2021.80957	1154.21228	1274.680176	1045.140137	1193.282959	1108.629883	1087.466675	1118.397583	1287.703735
2020.21875	1168.574463	1328.073486	1056.27417	1206.007935	1083.942383	1066.039429	1137.651245	1271.109619
2018.626953	1174.793701	1311.473267	1085.301147	1285.439087	1134.115234	1080.419678	1135.742432	1272.421997
2017.03418	1130.580933	1327.415894	1060.631348	1156.608643	1086.659058	1096.419434	1148.474976	1246.079102
2015.442383	1140.058838	1327.087036	1094.521484	1226.254395	1037.599854	1045.731567	1140.058838	1275.044434
2013.848633	1117.013306	1336.513794	1017.831665	1152.783813	1090.998413	1045.472412	1107.25769	1258.469116
2012.255859	1152.498047	1306.922974	1064.719604	1219.144653	1072.84729	1111.859863	1145.995972	1306.922974
2010.662109	1153.837402	1251.344849	1015.701965	1153.837402	1082.332031	1074.206421	1096.95813	1248.094604
2009.068359	1135.679443	1299.776123	1015.450134	1161.674927	1073.940063	1041.445679	1121.056885	1272.155884
2007.473633	1124.027466	1304.32666	959.971436	1164.635376	1078.546631	1086.668213	1101.286987	1260.470093
2005.878906	1162.722534	1341.353149	1032.809448	1167.594238	1071.783325	1060.416016	1126.99646	1273.148682
2004.283203	1196.52771	1284.197388	1040.670654	1164.057495	1125.093262	1053.658813	1113.728638	1250.103638
2002.6875	1171.884155	1300.109619	1058.266602	1154.029907	1110.206055	1066.38208	1085.859375	1269.27063
2001.091797	1150.497925	1281.937134	1023.927002	1178.083984	1077.476196	1040.154053	1144.007202	1273.823608
1999.495117	1187.525269	1254.039551	1046.384888	1194.014404	1109.654663	1051.251831	1038.273438	1239.438843
1997.898438	1112.622803	1284.544189	1041.259277	1164.523682	1057.478271	1080.184814	1149.926514	1260.215698
1996.300781	1169.098755	1272.874512	1024.785645	1183.692261	1079.916504	1068.56604	1118.832397	1238.82312
1994.703125	1157.460571	1201.230103	1040.741821	1149.355103	1073.163696	1040.741821	1131.523071	1249.862915
1993.104492	1178.241821	1273.862549	1077.759033	1153.931396	1009.690002	1092.345215	1116.655518	1251.172852
1991.506836	1195.771973	1288.128296	1041.844727	1147.16333	1069.389526	1067.769287	1152.02417	1236.279175
1989.907227	1154.977417	1349.363525	1035.106079	1122.579712	1070.74353	1069.123535	1120.959839	1214.913208
1988.308594	1183.84082	1281.009644	1046.184937	1149.831665	1130.397949	1067.238159	1098.008301	1251.859009
1986.708984	1160.87915	1279.071777	1028.114624	1157.640991	1104.211304	1052.400879	1125.259399	1275.833618
1985.108398	1126.598022	1257.710693	995.485291	1142.784668	1039.189453	1052.138916	1107.173828	1293.321533
1983.507813	1144.11853	1242.83313	1022.748047	1166.774292	1037.3125	1064.82312	1106.898193	1205.612793
1981.907227	1187.515991	1313.709839	1038.672119	1172.9552	1077.500977	1113.093994	1130.890625	1234.434204
1980.305664	1140.313721	1277.79834	988.271912	1188.837769	1072.380127	1069.145264	1124.139038	1272.945923
1978.704102	1125.476074	1251.606934	1036.537598	1156.200195	1085.049438	1057.559448	1086.666504	1245.138672
1977.102539	1120.345581	1273.928345	1037.895874	1165.612061	1052.445801	1055.679199	1109.028931	1280.39502
1975.5	1120.066284	1254.215698	1048.95105	1186.332886	1111.984985	1027.939697	1103.903809	1302.703369
1973.896484	1161.799316	1244.207886	1058.384644	1228.049316	1061.616333	1048.689453	1121.402954	1286.220093
1972.293945	1103.353271	1240.666626	1056.505127	1224.512085	1096.891479	1096.891479	1106.584229	1306.900146
1970.689453	1128.918823	1227.436768	1062.701782	1216.13147	1090.157715	1009.405212	1091.772705	1250.047485
1969.085938	1133.481079	1236.818359	994.621582	1143.168945	1049.519531	1081.812378	1102.802856	1262.65271
1967.481445	1173.554199	1228.438477	1031.500854	1163.868774	1063.785767	1108.984497	1104.141846	1289.779663
1965.876953	1131.301514	1320.120728	1047.381836	1142.598389	1120.004639	1132.915283	1100.63855	1278.160889
1964.271484	1184.262329	1266.547607	1043.893433	1153.607056	1064.868042	1063.254639	1158.447388	1250.41333
1962.666016	1164.610229	1279.13562	1042.019653	1132.349487	1016.211121	1046.858765	1122.671387	1238.809692
1961.05957	1132.06665	1273.978149	974.02887	1178.832886	1036.921509	1044.984619	1090.138306	1251.401367
1959.453125	1133.395996	1286.557617	1010.866699	1205.946289	1093.090332	1099.539185	1078.580322	1259.14978
1957.845703	1154.066406	1281.400635	1015.449524	1144.395508	1075.087036	1070.251587	1110.547241	1226.598511
1956.239258	1155.389404	1197.286377	1047.424072	1165.057861	1061.92688	1100.601074	1107.046753	1284.303101
1954.630859	1114.824951	1271.09375	1010.108765	1161.544556	1045.551147	1029.44104	1132.546143	1298.481079
1953.023438	1151.590332	1283.660767	1048.510864	1206.351196	1077.501953	1056.563965	1174.138916	1228.899902
1951.415039	1173.845215	1214.100464	1035.366821	1191.557495	1049.858765	1045.028198	1099.775391	1284.949829
1949.805664	1162.282715	1307.165649	1033.497925	1157.453369	1078.572632	1057.645142	1151.01416	1313.604858
1948.196289	1166.820068	1223.149292	991.394714	1186.132935	1030.020508	1034.848755	1079.912109	1284.306763
1946.586914	1118.257813	1295.248291	1026.544556	1166.527954	1036.198608	1071.59668	1098.949829	1295.248291
1944.976563	1138.889648	1248.274536	986.07251	1196.799194	1082.588623	1085.805786	1105.109009	1311.009888
1943.366211	1162.727295	1260.827393	990.650085	1215.797852	1069.451782	1067.843628	1117.697754	1313.897949
1941.754883	1209.062134	1279.805054	1028.989014	1173.690552	1088.477417	1075.615112	1147.96582	1294.275269
1940.143555	1192.685181	1273.05481	1060.879028	1176.611206	1083.382446	1065.701172	1136.426392	1281.091797
1938.532227	1214.884033	1280.77063	1089.53894	1171.495361	1084.717896	1047.757202	1150.604492	1245.41687
1936.919922	1124.610596	1267.596802	1050.707642	1171.20166	1050.707642	1113.364502	1074.806396	1277.236328
1935.307617	1222.305786	1215.881104	1042.413208	1174.120239	1127.541016	1053.656494	1145.208984	1320.282959
1933.694336	1204.335571	1249.297485	1045.363281	1172.219971	1087.113647	1050.180664	1127.258179	1260.537964
1932.081055	1155.87207	1268.248535	1022.625732	1200.822754	1070.787109	1090.051636	1196.006592	1281.091553
1930.467773	1214.966064	1195.706421	1004.714355	1186.076538	1089.778076	1073.728271	1118.667603	1301.634766
1928.853516	1164.919434	1214.661133	1044.576538	1195.40625	1092.713623	1065.435913	1075.063354	1249.96167
1927.239258	1161.418579	1236.814575	1031.480835	1193.501953	1078.001831	1087.626831	1084.418457	1310.606323
1925.624023	1177.164551	1252.541626	1045.655762	1178.768311	1058.48584	1055.27832	1137.070435	1294.239502
1924.008789	1204.126099	1292.311035	1066.236816	1212.142822	1080.667114	1071.046875	1125.561279	1319.568237
1922.392578	1122.07251	1226.265015	1008.262329	1149.322876	1102.837036	1078.792603	1110.851807	1283.971558
1920.776367	1171.469849	1285.251465	1088.136841	1161.854492	1112.175171	1073.713745	1131.405884	1274.033569
1919.160156	1163.164551	1278.519775	1023.7771	1195.207642	1034.992188	1067.035278	1097.476196	1264.100342
1917.542969	1159.668579	1278.198242	1053.953003	1230.145752	1087.589722	1020.316162	1154.863403	1257.375488
1915.925781	1133.755371	1265.06604	1052.086548	1175.390503	1071.302734	1028.066284	1149.768921	1257.059326
1914.307617	1146.277832	1271.151611	998.990662	1141.474976	1117.460693	1071.033325	1159.085327	1311.175293
1912.689453	1091.570923	1278.834473	1000.339905	1190.804565	1107.576294	1109.17688	1121.981201	1307.644287
1911.071289	1145.700928	1257.710815	985.686829	1153.70166	1104.09729	1083.29541	1104.09729	1224.10791
1909.452148	1116.61731	1276.591064	1003.035828	1180.606812	1052.627686	1059.026733	1078.223511	1263.793213
1907.833008	1129.130859	1289.064331	977.19397	1119.53479	1087.548096	1052.362671	1143.52478	1239.484985
1906.212891	1154.429321	1234.375977	1042.504028	1152.830444	1098.466675	1085.675293	1132.044312	1283.942871
1904.592773	1176.517944	1248.451782	1026.256226	1211.685669	1130.160645	1024.657593	1107.78125	1275.626831
1902.97168	1125.081543	1259.324219	1018.006958	1150.651489	1056.362061	1107.502075	1144.259033	1236.950439
1901.350586	1164.741089	1238.236328	1030.532227	1131.188843	1046.509399	1073.670776	1155.154663	1266.995361
1899.729492	1197.991211	1226.743042	1017.493896	1221.95105	1054.2323	1110.13855	1150.071533	1285.843872
1898.107422	1152.975464	1221.642944	1039.594238	1144.990845	1074.72644	1090.695557	1148.184692	1269.550537
1896.485352	1155.877686	1248.475586	1052.104126	1149.491577	1074.455322	1088.823975	1143.105591	1305.950195
1894.862305	1139.625	1241.776245	1011.935913	1219.430664	1090.145508	1013.532043	1091.741577	1264.121826
1893.239258	1086.678955	1228.697266	1054.764771	1193.591553	1107.423218	1089.870361	1061.147583	1254.228638
1891.616211	1126.287476	1245.935547	1035.354858	1159.78894	1102.357788	1081.618774	1143.835815	1293.7948
1889.992188	1173.850342	1282.303833	1063.80188	1175.44519	1086.130493	1068.586548	1138.762329	1282.303833
1888.368164	1183.120972	1262.846069	1028.454224	1152.825439	1074.694824	1068.316772	1136.880371	1286.763672
1886.743164	1098.334839	1217.892334	1028.194458	1171.663452	1050.511841	1085.582031	1141.37561	1275.279907
1885.118164	1117.181763	1235.115356	1035.903198	1182.523438	1099.651123	1074.151978	1164.992676	1279.738892
1883.492188	1131.239136	1218.870361	1008.555481	1158.325195	1113.712891	1099.373291	1081.847046	1285.788696
1881.866211	1158.032471	1218.562378	1022.636658	1180.333008	1097.502563	1024.229492	1137.324829	1288.649658
1880.240234	1114.742554	1211.884399	1033.525513	1194.366943	1051.042969	1106.780029	1127.482422	1226.216797
1878.613281	1181.328369	1205.209595	1006.198792	1154.262817	1088.987305	1044.408813	1155.85498	1238.643433
1876.986328	1066.428345	1211.271606	1028.227905	1196.946411	1095.078613	1060.061646	1071.203369	1292.44751
1875.358398	1175.957031	1263.477539	1056.61084	1177.54834	1088.436523	1050.245728	1085.253906	1255.521118
1873.730469	1080.206787	1236.112915	1010.208069	1193.15918	1078.615845	1097.706421	1105.660767	1299.748047
1872.101563	1170.590576	1210.352417	1002.000061	1199.219116	1097.428589	1068.800049	1067.209595	1253.295288
1870.472656	1163.93396	1268.878784	1030.367798	1171.884277	1044.678467	1089.200439	1128.952271	1284.779541
1868.84375	1162.049561	1209.739746	1087.335083	1120.71814	1080.976318	1047.593262	1096.873047	1257.42981
1867.213867	1163.344604	1198.308472	1037.792358	1114.077271	1063.220703	1048.917236	1120.434326	1265.057739
1865.583984	1159.872192	1234.54895	1070.895752	1161.46106	1097.906372	1045.473877	1123.328247	1267.915039
1863.953125	1199.289917	1254.886108	994.378113	1153.224487	1129.397583	1011.851257	1118.27832	1273.947754
1862.322266	1164.048706	1248.215942	1014.770935	1168.812866	1049.708252	1043.356079	1079.88147	1278.389038
1860.691406	1125.64978	1278.065063	1043.091553	1205.032715	1074.844727	1063.731201	1124.062134	1301.879883
1859.05957	1117.428223	1217.425293	1042.827148	1141.237061	1084.095825	1055.525146	1115.840942	1279.328247
1857.427734	1147.295044	1267.895874	1002.891357	1188.553223	1079.060303	1093.342041	1102.863159	1290.111816
1855.794922	1129.553101	1239.018188	1021.674438	1140.658203	1042.298218	1072.440796	1107.342773	1246.950439
1854.162109	1124.508423	1306.903931	1021.415222	1214.913086	1064.238525	1086.443237	1126.094482	1305.317871
1852.52832	1162.278564	1247.903442	1081.410645	1192.405762	1098.852661	1065.554077	1081.410645	1322.428833
1850.894531	1198.444092	1209.540894	1057.357422	1155.642578	1087.477051	1133.449097	1090.647583	1257.098145
1849.260742	1164.858276	1233.006348	1053.919312	1109.388794	1058.673828	1036.486084	1103.049438	1288.47583
1847.625977	1153.471436	1235.862183	1012.45636	1177.237915	1056.820679	1015.625244	1067.911743	1259.628784
1845.990234	1172.18689	1243.468506	1032.791626	1153.178467	1062.888306	1051.800049	1073.976563	1284.653442
1844.355469	1163.970947	1239.985352	991.354797	1206.729004	1092.707397	1046.781982	1140.216431	1301.74707
1842.71875	1111.428467	1231.75415	1019.601074	1170.008057	1051.265747	1035.433472	1139.926636	1250.75293
1841.083008	1155.465332	1274.17749	1076.323853	1190.287476	1130.140015	1066.826904	1174.459229	1312.165405
1839.446289	1093.456909	1289.677856	1076.050171	1170.99585	1102.951416	1064.973267	1110.863647	1210.556519
1837.808594	1189.682373	1216.576782	996.675415	1211.830688	1066.284424	1107.417114	1131.147461	1248.217285
1836.171875	1214.685791	1270.042603	1073.921387	1181.47168	1135.604614	1084.992798	1091.319214	1268.460938
1834.533203	1174.846313	1255.488525	1029.374023	1155.871704	1064.160889	1035.698975	1078.391846	1249.163574
1832.895508	1078.117554	1234.618408	1037.016235	1168.224121	1035.435425	1087.602417	1092.344849	1294.689453
1831.255859	1166.346436	1258.010498	1052.556519	1152.122681	1041.493652	1065.199829	1136.318481	1338.611694
1829.617188	1154.98938	1268.750366	1015.948303	1167.629517	1038.068481	1075.98877	1123.38916	1275.070435
1827.977539	1161.013794	1274.745728	1023.587646	1195.765259	1118.364258	1119.94397	1102.568237	1239.994385
1826.336914	1184.40625	1244.416138	1054.911133	1201.777588	1078.599365	1064.386475	1178.089478	1271.262695
1824.697266	1182.525757	1277.25415	1040.433228	1160.422485	1113.05835	1087.797363	1133.582764	1311.987915
1823.055664	1185.381348	1229.57666	1106.46106	1209.057373	1063.844238	1082.785034	1149.078003	1327.437622
1821.415039	1161.40918	1219.795288	1006.765076	1177.189209	1091.977173	1038.325073	1136.161255	1276.603394
1819.772461	1165.845947	1244.725952	1025.439697	1213.17395	1056.991577	1107.474854	1129.561157	1301.519531
1818.130859	1206.555908	1239.677002	1061.453735	1241.254272	1119.810059	1129.273193	1163.971558	1324.845703
1816.488281	1187.32666	1267.743286	1009.148865	1233.053711	1084.835083	1108.486938	1116.370972	1297.702393
1814.845703	1196.482178	1300.52417	1054.606934	1226.433716	1078.252808	1109.78064	1095.59314	1257.961548
1813.202148	1170.961182	1249.760742	1048.033936	1185.14502	1085.857666	1084.281616	1141.017334	1282.856445
1811.557617	1147.028564	1260.470947	1057.219971	1164.359985	1101.336426	1090.307373	1140.726196	1290.407104
1809.914063	1159.33728	1233.371094	1000.243469	1171.938843	1097.905029	1094.754639	1102.630615	1242.822144
1808.269531	1177.938721	1220.457886	996.838562	1195.261353	1042.507324	1097.624756	1136.994385	1335.417236
1806.624023	1120.960205	1193.381836	1040.666748	1161.894165	1089.472534	1051.687378	1139.852783	1325.629883
1804.978516	1169.467407	1278.072021	1023.087158	1205.668945	1071.880615	1070.306641	1130.117798	1342.605225
1803.333008	1170.742188	1243.126831	1057.44458	1166.021484	1140.844238	1062.165283	1131.40271	1301.349243
1801.686523	1167.296753	1242.809204	1047.735352	1172.016235	1065.040283	1109.089233	1137.406372	1293.150879
1800.039063	1159.134521	1275.519775	1041.176514	1214.181641	1110.37854	1121.387939	1118.242432	1333.712524
1798.392578	1182.423828	1286.200439	1047.199829	1199.719971	1114.81189	1080.219604	1147.831665	1248.463501
1796.744141	1178.977661	1248.144287	1075.227539	1193.125366	1068.939697	1083.087402	1149.110229	1256.00415
1795.09668	1181.819214	1246.25354	1082.810425	1195.963379	1106.384033	1065.523193	1145.673218	1279.25647
1793.448242	1198.799805	1241.221313	1069.964233	1173.661133	1091.960449	1049.539063	1134.381958	1304.067993
1791.798828	1217.342285	1256.61145	1036.704346	1146.657959	1097.964233	1061.83667	1090.110352	1258.182129
1790.150391	1184.053223	1271.99353	1070.987061	1187.193848	1111.816528	1083.550049	1143.223755	1344.230103
1788.5	1182.180176	1273.237915	1036.173828	1196.309814	1075.422852	1073.852905	1109.962036	1318.766724
1786.849609	1185.016602	1249.36853	1048.465088	1208.560059	1101.830078	1112.817017	1137.929932	1318.429077
1785.199219	1190.989868	1277.293457	1059.180664	1228.649658	1088.994629	1088.994629	1140.776855	1292.984985
1783.548828	1173.428589	1242.453735	1051.065674	1217.353638	1124.797119	1079.303223	1138.915894	1317.754028
1781.897461	1217.04187	1323.689819	1090.005249	1212.336792	1132.35083	1097.847046	1113.530518	1331.531616
1780.245117	1190.074829	1241.817261	1014.464355	1199.482544	1163.419678	1072.478516	1157.147827	1310.807129
1778.592773	1186.634766	1258.742065	1056.528198	1210.147949	1112.959961	1076.906372	1095.716919	1354.362549
1776.94043	1187.897705	1275.657959	1060.958862	1187.897705	1126.779053	1139.316162	1156.55481	1336.776733
1775.287109	1234.595581	1278.464478	1021.518127	1237.729004	1132.75708	1063.820313	1164.092041	1273.76416
1773.633789	1228.01355	1304.764404	1068.24646	1199.819458	1148.130005	1115.236816	1206.084839	1340.790405
1771.979492	1176.022583	1307.561646	1063.274658	1244.92395	1140.005859	1102.423218	1202.643555	1374.897217
1770.325195	1188.245117	1310.3573	1058.305298	1208.597168	1120.92688	1141.278931	1171.02417	1349.49585
1768.670898	1225.50354	1250.545776	1072.119995	1253.676025	1147.246582	1106.552979	1189.505371	1391.408325
1767.015625	1233.012695	1328.46167	1095.315918	1220.494873	1135.999023	1170.423218	1164.164307	1330.026367
1765.359375	1202.973877	1304.65564	1084.084351	1284.319214	1171.687134	1073.134033	1182.637451	1357.843018
1763.703125	1249.583008	1344.98291	1116.64856	1244.891113	1188.5896	1108.828979	1196.40918	1338.727173
1762.046875	1257.079712	1299.295044	1108.544189	1285.223267	1121.052368	1153.886597	1246.13501	1371.217529
1760.389648	1269.261841	1280.203735	1092.628052	1267.69873	1162.968994	1164.532104	1233.309814	1419.322388
1758.732422	1214.240234	1329.882202	1118.913818	1273.623901	1170.483765	1195.487427	1201.738403	1423.645874
1757.075195	1313.917114	1363.911621	1126.437866	1306.105469	1196.742554	1193.61792	1187.368652	1388.908813
1755.416992	1366.684814	1402.609131	1137.081787	1341.694092	1227.673462	1227.673462	1268.283569	1422.914185
1753.757813	1347.595215	1425.671387	1163.335327	1374.141113	1239.850098	1208.619629	1272.64209	1474.078613
1752.098633	1367.543213	1445.599365	1141.180542	1403.449097	1255.142456	1273.875977	1297.292725	1470.577393
1750.439453	1428.059692	1442.106201	1220.483765	1389.041626	1239.212402	1345.341431	1323.491333	1484.245605
1748.779297	1362.158813	1462.019287	1257.617432	1423.011353	1221.730103	1340.314331	1359.038208	1557.19873
1747.119141	1414.845581	1527.159668	1252.614136	1461.643066	1316.570801	1405.486084	1419.525269	1598.915894
1745.458984	1422.279053	1511.171509	1311.553345	1464.385986	1325.588989	1381.731567	1425.398071	1684.277832
1743.796875	1442.181396	1576.265259	1361.107422	1443.740479	1382.935059	1439.063232	1495.191284	1671.371338
1742.135742	1485.454102	1563.389771	1362.315674	1487.012817	1329.582642	1479.219238	1482.33667	1655.353882
1740.473633	1614.411377	1615.969727	1363.523193	1586.361816	1424.297363	1495.979736	1517.796021	1721.934937
1738.811523	1542.331665	1656.059204	1356.940308	1578.163696	1441.067505	1472.225708	1540.773804	1693.449097
1737.148438	1552.836914	1619.809814	1362.820801	1604.234741	1404.873535	1451.598755	1554.394409	1694.570313
1735.485352	1568.007813	1642.749023	1323.54187	1578.907593	1356.241089	1474.581299	1557.108032	1726.832886
1733.821289	1519.345825	1592.510986	1343.437866	1527.129272	1421.273315	1516.232422	1439.953735	1727.944458
1732.157227	1546.967651	1599.881958	1400.674927	1556.30542	1405.34375	1475.377563	1492.496948	1687.035034
1730.492188	1513.894775	1597.913574	1331.853882	1493.667969	1344.301147	1431.431763	1459.43811	1755.059814
1728.827148	1494.838257	1588.168457	1281.734375	1504.171265	1339.287964	1393.730591	1477.727661	1669.054565
1727.162109	1436.91394	1519.334229	1320.28125	1450.90979	1348.273071	1359.158813	1398.036377	1696.615845
1725.496094	1448.980713	1525.161011	1237.541504	1478.52002	1383.68335	1385.238037	1408.558594	1601.341431
1723.829102	1429.9552	1471.921265	1271.416748	1440.835327	1297.839844	1363.120361	1428.400879	1565.179199
1722.163086	1423.370483	1488.634277	1246.226196	1401.615967	1267.980713	1359.660767	1398.508179	1586.529785
1720.495117	1385.719116	1474.268433	1275.420898	1444.751953	1315.811768	1297.1698	1440.091553	1539.515259
1718.828125	1348.087036	1494.078003	1205.202148	1385.361328	1261.113647	1304.600342	1363.61792	1562.414185
1717.160156	1313.57959	1430.031616	1245.260986	1395.872314	1302.710693	1301.157959	1358.607666	1512.324463
1715.491211	1387.750244	1454.498901	1258.909912	1448.289673	1249.596191	1322.553955	1373.779663	1519.69519
1713.822266	1418.429565	1437.052246	1207.372192	1423.085205	1244.617554	1328.4198	1361.009521	1551.892334
1712.15332	1402.548096	1450.644287	1245.847412	1393.239136	1317.216064	1306.355591	1351.348877	1518.909912
1710.483398	1402.185547	1423.900757	1231.565552	1409.940918	1290.506958	1323.079956	1368.061523	1577.45874
1708.813477	1457.647827	1468.502563	1249.855469	1350.650269	1270.014404	1288.622681	1392.518799	1558.442627
1707.142578	1403.010742	1466.57251	1244.881348	1416.963379	1261.93457	1368.904419	1435.566772	1558.039551
1705.47168	1521.989136	1484.79187	1284.856445	1455.343994	1266.257813	1385.599121	1435.195435	1653.729614
1703.799805	1487.506714	1509.199463	1379.042725	1439.472656	1303.117798	1425.527222	1454.967529	1605.2677
1702.12793	1494.867188	1544.437988	1319.820557	1491.769043	1389.529419	1333.762329	1436.001953	1696.248291
1700.455078	1537.843506	1664.835571	1327.222412	1562.622437	1413.94873	1486.736938	1517.710571	1661.738281
1698.782227	1610.214722	1712.401367	1429.065552	1562.217896	1395.003296	1501.834839	1548.283325	1718.594482
1697.109375	1628.372314	1724.341064	1396.189941	1572.64856	1453.46167	1591.223145	1541.690918	1807.926758
1695.435547	1668.185181	1705.324707	1508.794556	1696.039917	1491.772339	1640.330566	1702.229736	1807.458496
1693.761719	1762.125	1831.743652	1625.981934	1800.802002	1550.174927	1673.941406	1690.959351	1929.209717
1692.086914	1834.362427	1917.883179	1619.373901	1753.935059	1537.399902	1769.401855	1784.868652	2074.0979
1690.412109	1874.090332	1891.099365	1682.351685	1847.803589	1609.676636	1745.749146	1843.164795	2081.291748
1688.736328	1881.333984	1998.820801	1655.635742	1885.97168	1686.553345	1800.948364	1927.710327	2102.394531
1687.060547	2026.121216	2063.212646	1791.208618	1968.938477	1752.571655	1925.665161	2035.394043	2250.215332
1685.384766	2101.304688	2107.484863	1849.457031	2034.866211	1854.092285	1983.878784	2044.136719	2308.344971
1683.708008	2247.503906	2239.780518	1910.764404	2185.716797	1770.198853	2140.921143	2142.46582	2412.78418
1682.030273	2259.275146	2293.249023	1999.836792	2271.62915	1976.672607	2192.871094	2268.540771	2517.168945
1680.352539	2343.602051	2437.77832	2153.705322	2345.145752	2044.090332	2385.286621	2314.268311	2624.587158
1678.674805	2461.841309	2596.123535	2265.820068	2437.145752	2150.05957	2514.319336	2503.515137	2798.318604
1676.996094	2675.689453	2780.618652	2458.116211	2711.180176	2323.868896	2612.423584	2667.974121	3055.285645
1675.317383	2969.645508	3086.888672	2588.605225	2944.962646	2570.093262	2912.56665	3037.522949	3332.173584
1673.638672	3346.731201	3374.491943	2870.168945	3302.005127	2828.527588	3220.264648	3280.41333	3656.727783
1671.958008	3648.068848	3580.226318	3241.014648	3513.926025	3022.068848	3620.315186	3672.73877	3948.733887
1670.27832	3768.897217	3886.049072	3366.573242	3730.360596	3277.167969	3839.804932	3876.800293	4175.845703
1668.597656	4012.948242	4139.315918	3558.33252	3945.141113	3388.814697	4023.73584	4039.146484	4541.535645
1666.916016	4130.537109	4209.111328	3748.450928	4147.484375	3486.536865	4255.331543	4264.575195	4765.293457
1665.235352	4451.379883	4469.863281	3926.147949	4406.711914	3739.775146	4412.873047	4443.678711	5010.498047
1663.552734	4768.975586	4842.88916	4191.524414	4753.57666	3988.261719	4962.999023	4869.066895	5548.149414
1661.870117	5255.74707	5314.24707	4664.59082	5081.787109	4310.513184	5429.707031	5314.24707	6060.889648
1660.1875	5680.702148	5866.929688	5008.129395	5654.538086	4692.620117	5823.835449	5854.617188	6625.69043
1658.504883	6025.424805	6120.822266	5419.189453	5814.627441	5012.980957	6006.960938	6077.739746	6785.526855
1656.820313	6213.063965	6373.043945	5499.307617	6108.461914	5148.58252	6356.123047	6228.446777	7066.802734
1655.136719	6089.955566	6211.447266	5505.565918	6045.357422	5048.819336	6245.280273	6083.804199	7038.819824
1653.452148	5948.460938	5893.111816	5236.613281	5760.889648	4875.308594	5933.085938	5802.401367	6749.481445
1651.766602	5424.30957	5558.03418	4809.482422	5422.772461	4463.642578	5436.605957	5438.143066	6202.06543
1650.081055	4964.970215	5044.876953	4348.76709	4786.716797	4059.873535	4954.213379	4926.553711	5610.370117
1648.395508	4488.970703	4478.216797	3951.277344	4304.618652	3650.169189	4364.533203	4524.304688	5098.868652
1646.708984	4077.725098	4108.442383	3570.88916	4039.328369	3366.618896	4017.826172	4137.624023	4632.172852
1645.022461	3682.047852	3769.569336	3296.645752	3760.356445	3190.698486	3691.260498	3812.5625	4250.17041
1643.334961	3587.449219	3496.880371	3088.552734	3587.449219	2993.378662	3524.511475	3645.781738	4078.670166
1641.647461	3379.334229	3520.523438	3126.114258	3405.423584	2946.55835	3492.899414	3477.552734	3894.981934
1639.959961	3312.479736	3352.370605	2908.967773	3320.151123	2895.159424	3370.781738	3361.576172	3717.525879
1638.270508	3216.516357	3175.101807	2869.862549	3211.914551	2762.491943	3170.500244	3262.532227	3619.922852
1636.582031	3140.537598	3134.403564	2806.241943	3119.069092	2688.165283	3093	3149.738281	3519.303467
1634.892578	3046.201172	3078.395752	2587.814697	2960.349609	2566.351807	3006.341553	2984.878662	3274.62793
1633.203125	2886.009277	2887.541992	2536.561523	2810.908691	2461.460938	2794.049316	2859.953857	3215.532227
1631.512695	2725.900391	2820.900879	2393.398682	2640.093506	2362.753418	2693.7229	2637.029053	3056.869873
1629.821289	2596.512207	2662.382324	2273.288574	2576.5979	2253.374268	2515.323242	2621.021973	2901.353516
1628.130859	2505.477783	2580.519531	2211.436523	2398.275146	2102.702393	2453.407959	2484.037354	2796.456299
1626.438477	2431.33252	2420.61499	2146.554199	2428.270264	2145.023193	2391.524658	2454.29834	2702.331055
1624.74707	2386.308105	2430.69751	2106.196289	2404.676025	2015.886963	2257.732178	2253.140137	2646.52124
1623.054688	2367.321533	2449.955811	2075.040771	2304.580566	2038.314331	2261.733154	2293.868652	2512.696777
1621.361328	2290.209717	2355.993896	2054.610352	2343.754883	2011.774048	2262.672119	2281.030518	2623.720459
1619.667969	2233.020996	2333.965576	2021.95459	2317.141602	2014.307251	2347.730957	2283.493164	2532.796387
1617.973633	2354.762451	2354.762451	1980.141235	2310.419678	1980.141235	2241.611572	2336.413818	2582.593506
1616.279297	2263.955566	2241.025635	2019.368896	2299.11499	2051.470947	2201.280273	2225.73877	2560.516846
1614.584961	2303.098389	2235.854736	1965.35144	2284.759277	1963.823242	2174.724121	2232.798096	2529.281982
1612.889648	3407.144287	2158.876709	1981.644043	2249.020752	1934.280151	2134.430664	2166.515869	2430.836914
1611.194336	3461.241699	2179.696289	1970.43335	2211.773193	1871.147949	2100.268066	2164.421631	2421.036377
1609.498047	2229.519287	2179.125977	1882.874878	2130.26001	1888.983154	2131.786865	2133.313965	2508.9729
1607.801758	2109.855713	2173.97583	1922.075562	2177.029053	1832.002075	2071.688965	2106.80249	2390.762695
1606.104492	2150.512695	2133.723877	1935.308838	2144.407715	1904.783447	2072.673096	2089.461914	2429.819824
1604.407227	2140.794434	2189.622314	1869.189819	2162.156738	1872.241577	2061.449219	2070.604492	2426.13208
1602.708984	2071.587891	2042.603882	1832.089111	2106.673584	1851.920166	1998.365234	2057.858643	2321.764893
1601.010742	1944.464478	2084.770752	1762.981079	1996.316772	1770.606445	1930.73877	1981.066162	2286.080078
1599.3125	1916.510986	2119.292236	1725.927124	1989.69519	1715.254517	1951.578369	1968.349731	2236.691895
1597.613281	1960.212646	1999.84375	1797.115723	2008.98938	1792.542847	1917.533081	1992.222412	2176.65918
1595.914063	1976.461548	2014.55835	1712.831787	1918.554443	1665.591797	1868.266724	1944.460327	2182.184326
1594.213867	1992.701782	1950.044556	1703.242065	2032.312012	1761.133911	1855.589233	1872.347412	2178.56543
1592.512695	1990.65625	1955.62561	1803.318237	1940.394897	1725.641602	1817.026001	1899.271851	2114.025146
1590.8125	1836.344238	1917.045898	1713.00769	1897.251221	1699.303589	1828.730835	1882.024414	2188.081787
1589.110352	1890.664551	1890.664551	1663.845703	1886.097656	1695.813477	1875.441772	1881.530884	2120.527832
1587.40918	1865.818604	1996.699829	1680.14978	1905.387329	1701.456055	1821.684204	1833.859253	2116.927979
1585.707031	1898.801514	1988.568604	1729.917725	1932.273926	1678.1875	1868.371948	1918.580688	2075.292725
1584.003906	1945.456543	1878.529175	1696.000122	1829.854736	1642.762451	1816.165161	1884.613525	2126.4646
1582.300781	1838.498535	1891.72229	1561.735352	1844.581299	1631.686523	1780.712891	1835.457275	2002.731689
1580.59668	1804.569824	1800.009033	1603.893188	1822.81311	1596.291748	1748.31958	1772.643921	2006.766724
1578.892578	1798.016479	1791.937012	1579.153931	1826.894165	1609.551514	1676.426147	1798.016479	1977.362183
1577.188477	1709.414429	1843.128662	1577.219727	1723.089722	1584.817139	1680.544312	1730.687134	1937.336426
1575.483398	1705.927246	1786.438477	1557.057373	1725.675293	1564.652832	1652.759399	1721.118042	1901.888672
1573.77832	1670.549438	1722.18457	1495.901123	1703.960449	1583.984619	1656.881226	1705.479126	1915.057129
1572.072266	1667.073853	1759.689087	1475.770264	1632.15332	1474.252075	1577.495239	1635.189941	1894.816162
1570.366211	1651.456909	1800.209473	1479.936035	1718.243774	1473.864502	1578.598511	1613.509766	1865.478394
1568.65918	1687.442383	1696.547241	1471.959595	1729.931885	1474.994629	1616.120605	1619.155518	1890.785278
1566.952148	1659.691162	1677.896118	1480.675049	1680.930298	1545.90979	1608.110229	1627.832397	1881.185547
1565.244141	1729.022217	1692.621826	1513.652832	1703.238525	1469.668945	1615.270752	1647.121216	1853.390503
1563.536133	1702.790527	1717.953491	1478.380005	1725.534912	1583.003906	1613.32959	1701.274292	1863.516968
1561.827148	1706.890259	1749.335083	1467.379883	1652.318237	1529.531372	1634.127686	1697.794922	1890.312744
1560.118164	1682.193237	1817.071899	1530.644287	1760.998779	1533.675293	1609.449829	1701.894653	1883.753418
1558.40918	1777.201294	1807.503052	1560.543335	1725.688232	1555.998047	1668.114746	1665.084595	1962.042358
1556.699219	1775.21875	1828.23291	1602.543945	1784.306885	1596.485107	1714.631104	1758.557129	1984.246216
1554.988281	1777.779907	1812.608643	1627.86499	1761.122681	1638.464966	1738.408325	1747.494141	2004.92395
1553.27832	1750.061646	1874.20105	1554.769287	1777.311768	1582.019409	1668.311401	1744.006104	1977.145874
1551.566406	1811.654053	1793.492065	1539.224854	1785.924683	1515.008911	1761.70874	1739.006226	1952.40918
1549.854492	1774.862427	1799.072021	1528.227661	1762.75769	1555.463501	1697.69458	1740.061279	1976.10437
1548.142578	1718.425049	1771.369385	1580.769531	1757.755127	1565.642456	1647.328247	1656.404419	1963.482056
1546.429688	1742.168945	1730.070557	1534.983887	1675.627686	1506.250244	1728.558228	1662.01709	1908.521851
1544.716797	1734.150146	1749.269165	1543.650635	1673.674194	1516.436523	1635.876587	1678.209839	1858.126099
1543.003906	1700.439941	1756.365479	1481.272095	1665.675415	1523.594238	1605.215332	1605.215332	1877.285645
1541.289063	1689.413818	1669.769531	1532.259033	1647.102905	1533.770142	1574.569946	1610.836426	1893.412842
1539.575195	1670.839844	1735.800049	1485.023071	1627.029297	1492.576538	1553.004761	1636.093628	1908.020508
1537.860352	1685.502075	1680.971191	1511.816895	1658.316528	1463.487061	1578.270386	1602.435181	1821.429688
1536.144531	1724.314941	1686.567261	1443.472046	1694.116821	1500.848633	1615.601563	1645.799805	1897.954468
1534.428711	1723.859985	1702.726807	1492.905029	1705.74585	1533.661743	1681.593628	1636.30835	1894.43457
1532.712891	1740.005127	1676.622559	1518.165771	1669.076904	1563.439209	1666.058716	1640.403809	1998.063232
1530.996094	1736.528442	1753.124268	1566.043823	1741.054565	1587.165771	1709.371582	1689.758301	1964.343994
1529.279297	1782.827637	1782.827637	1583.730103	1814.502197	1639.53772	1627.471191	1704.395264	1951.758789
1527.561523	1785.372559	1788.388428	1566.724731	1812.515137	1599.898926	1643.62854	1737.119263	2050.765869
1525.84375	1771.333374	1771.333374	1625.104126	1813.543823	1560.280884	1698.972534	1753.243164	1982.385864
1524.125	1712.087646	1769.358276	1608.096436	1782.922363	1630.703247	1647.281494	1731.680298	1984.876343
1522.40625	1761.357056	1737.249512	1500.694336	1725.195801	1634.79248	1689.034424	1746.289917	1931.616577
1520.686523	1786.499023	1721.727173	1509.335571	1745.828369	1580.132813	1622.309814	1664.486816	1961.232544
1518.966797	1778.497192	1686.635742	1496.88916	1743.86084	1575.197266	1629.410645	1679.106079	1963.725952
1517.246094	1690.706421	1741.894287	1501.01001	1755.44397	1562.736572	1650.057129	1693.717407	1905.996704
1515.525391	1693.269531	1688.75415	1464.48999	1657.146484	1482.551514	1571.354126	1583.395142	1855.823364
1513.803711	1677.774292	1700.345337	1437.017456	1701.849976	1467.112061	1516.768188	1572.443237	1781.600708
1512.082031	1641.226563	1693.878174	1489.28894	1672.817505	1451.680664	1569.018555	1606.626831	1808.207397
1510.360352	1598.682129	1654.327637	1455.80835	1640.792236	1440.768921	1544.540405	1610.713501	1849.839111
1508.637695	1647.875732	1665.918091	1360.700317	1602.769531	1461.437134	1569.691772	1638.854492	1826.796509
1506.915039	1657.961426	1630.904907	1390.402832	1561.76062	1443.012695	1570.779419	1573.785645	1796.250122
1505.191406	1565.855347	1663.533447	1442.630615	1595.910156	1408.067627	1538.80603	1564.352539	1783.752686
1503.466797	1544.407959	1621.027344	1415.206421	1613.515625	1433.234619	1548.914917	1596.989868	1813.327148
1501.743164	1644.62915	1635.617432	1437.36084	1653.640747	1413.329712	1581.547485	1601.072754	1728.738037
1500.017578	1684.735229	1722.273926	1396.438232	1677.227539	1448.992432	1585.633179	1572.119263	1869.425415
1498.292969	1615.235962	1666.275024	1448.608521	1670.778442	1505.6521	1541.679688	1610.732544	1877.937012
1496.566406	1637.319214	1746.874023	1446.723877	1701.851563	1551.776367	1559.280151	1661.331177	1935.968628
1494.84082	1705.901489	1777.918457	1470.346069	1675.894409	1498.852783	1647.387695	1668.3927	1860.437866
1493.113281	1780.447021	1808.946167	1552.453735	1714.448975	1567.453369	1660.450562	1666.450439	1922.942749
1491.386719	1791.971313	1806.966919	1525.050171	1695.999634	1585.032471	1722.991699	1748.484253	2055.893555
1489.65918	1858.958374	1836.470947	1664.067505	1828.975098	1679.059082	1754.01709	1784.000366	2026.864258
1487.930664	1913.919434	1921.413208	1686.107544	1865.958984	1723.57666	1786.524658	1891.437988	2090.773438
1486.202148	1922.401855	2058.75293	1781.555542	2012.303711	1781.555542	1881.946045	1935.887085	2231.064941
1484.473633	2035.737183	2148.084717	1891.932373	2007.275879	1835.009644	2020.757568	2043.227051	2332.334717
1482.744141	2228.383301	2165.485352	1904.908325	2219.397949	1903.410767	2152.007324	2162.490234	2406.594238
1481.013672	2358.045898	2371.520264	2048.131104	2313.130615	2130.475586	2218.808838	2329.599609	2627.536865
1479.283203	2492.129395	2499.613281	2183.793945	2483.148682	2197.264893	2495.123047	2504.103516	2843.871338
1477.552734	2669.536377	2732.384277	2289.456787	2680.01123	2391.210449	2597.710449	2723.406006	3004.724854
1475.821289	2906.688232	2957.551514	2532.693359	2921.647949	2558.125	2791.497803	2887.240479	3220.843994
1474.089844	3127.262207	3179.607422	2751.871094	3034.536133	2759.348877	3100.341553	3166.147217	3510.131104
1472.357422	3404.535645	3522.655273	2923.086182	3307.348633	2960.46582	3437.429688	3379.117432	3900.937012
1470.625	3663.723877	3816.192139	3206.318848	3523.213867	3156.990967	3642.796875	3651.765381	4215.300293
1468.891602	3952.661621	3939.212158	3411.692383	3819.660889	3366.86084	3913.807373	3840.582275	4400.978516
1467.158203	4175.709473	4222.023438	3654.306152	3997.924561	3579.606689	4198.119629	4051.708252	4698.606934
1465.423828	4452.408203	4506.177734	3801.200439	4306.035645	3705.610352	4326.946289	4338.89502	5072.25
1463.689453	4708.054199	4694.615234	4086.883545	4590.091309	4058.512695	4800.632324	4805.111816	5359.088379
1461.954102	5002.376465	4932.214844	4372.414063	4841.153809	4211.191895	5056.117188	4917.286621	5626.367188
1460.21875	5007.015137	5215.95166	4517.506348	4811.510254	4289.168945	5084.620117	4974.182129	5729.338379
1458.483398	5208.595703	5287.671875	4474.52832	5007.174805	4289.519531	5138.471191	5104.155273	5800.922363
1456.746094	5301.180664	5402.609863	4621.006836	5105.779785	4385.33252	5338.470703	5256.432129	5893.349609
1455.009766	5484.679688	5472.75	4567.583984	5153.630371	4589.952148	5422.048828	5478.714844	6173.620117
1453.272461	5612.92041	5606.957031	4804.898438	5524.962402	4605.128906	5518.999023	5645.718262	6298.695313
1451.53418	5876.720215	5875.229492	4994.392578	5666.571289	4788.714844	5893.114746	5888.643555	6601.063477
1449.796875	6049.487305	6085.248047	5142.064453	5776.813477	5016.902344	5976.476074	6000.316406	6815.358398
1448.057617	6171.514648	6232.589355	5283.698242	5766.336914	4961.939453	6146.190918	6044.896484	6874.617188
1446.318359	6341.131348	6266.669922	5410.364258	5886.916992	4993.380371	6287.519043	6146.04248	6971.074707
1444.579102	6293.287598	6300.731934	5394.033691	5959.789551	5076.913086	6346.885742	6171.203613	7179.14209
1442.838867	6342.216797	6538.689941	5659.025879	6203.79248	5254.171875	6541.666992	6511.898438	7409.423828
1441.098633	6703.606934	6897.051758	5916.435547	6401.535645	5499.785156	6721.463379	6831.578125	7660.415039
1439.357422	6719.671387	6846.120605	6014.529785	6500.988281	5600.96582	6835.707031	6896.700195	7830.938477
1437.616211	6575.103516	6661.36377	5593.522949	6289.552734	5291.612305	6652.44043	6701.519531	7479.347656
1435.874023	6082.69043	6258.138184	5221.806152	5867.097656	5030.00293	6157.032715	6186.769531	6919.785156
1434.131836	5568.242188	5608.376465	4746.235352	5363.111816	4517.321777	5630.672852	5544.458984	6208.902344
1432.388672	4804.410645	4825.215332	4163.921875	4629.056641	3911.292725	4808.869141	4893.574219	5314.126953
1430.645508	4225.208008	4274.234863	3568.547607	3987.50293	3466.037354	4153.896484	4131.611816	4706.561035
1428.901367	3781.472412	3747.311523	3184.397949	3600.270752	3053.695068	3676.019043	3644.828613	4044.363525
1427.157227	3360.246338	3320.155029	2876.180908	3176.123291	2763.331299	3287.488037	3250.366455	3645.340332
1425.412109	3014.952637	3047.611084	2649.773926	2995.654541	2624.537842	3028.312988	3060.971191	3433.57251
1423.666992	2852.383789	2905.810303	2536.276611	2855.351807	2416.066895	2847.931641	2812.313721	3233.789795
1421.921875	2756.666504	2867.942139	2416.905273	2716.607422	2270.021484	2722.541992	2747.764404	3114.231934
1420.175781	2708.465088	2806.361328	2322.812988	2612.052002	2290.180908	2693.632324	2757.41333	3000.670898
1418.428711	2580.213379	2681.049316	2371.127197	2581.696289	2209.493164	2510.518066	2630.631348	3002.834717
1416.681641	2540.979248	2637.340576	2210.38501	2431.275391	2182.217773	2460.925049	2517.259521	2867.125977
1414.93457	2485.462646	2525.479004	2147.546387	2429.143311	2074.924072	2442.481934	2457.302979	2741.864014
1413.186523	2366.262695	2509.986816	2069.924072	2333.665283	2025.473389	2336.628662	2299.586426	2690.753174
1411.4375	2241.200928	2389.330566	2024.931641	2324.15332	1976.048828	2267.864258	2272.308105	2589.30542
1409.688477	2256.891357	2302.799072	1926.650635	2265.776611	1977.001221	2126.572021	2277.623779	2529.376709
1407.939453	2234.079834	2324.390625	1977.952759	2204.469727	1960.186646	2242.962891	2198.547852	2488.726563
1406.189453	2246.802979	2286.765869	1941.900879	2199.439453	1900.457886	2149.115967	2199.439453	2418.495361
1404.439453	2228.445068	2234.364014	1960.617432	2114.507324	1922.144897	2170.736328	2170.736328	2416.368408
1402.688477	2216.01416	2255.955566	1914.233765	2192.344971	1863.937012	2090.272217	2156.841553	2443.828613
1400.9375	2176.96875	2147.390381	1824.986084	2098.586182	1888.57959	2076.402344	2752.268311	2431.343018
1399.185547	2191.171143	2176.385742	1854.067871	2148.293945	1886.595337	1964.957031	4023.061035	2381.900635
1397.433594	2138.849854	2048.684082	1809.227417	2027.990234	1784.099243	2045.727783	2242.318604	2356.134521
1395.680664	2126.454834	2200.341553	1805.787231	2000.847778	1827.953247	2049.612793	2023.013672	2289.005371
1393.927734	2084.519775	2060.882324	1752.119385	2028.380981	1784.620728	2006.220947	1970.764893	2214.525146
1392.173828	2089.868896	2110.545898	1809.250488	2002.729492	1778.234741	1977.62146	2089.868896	2295.16333
1390.419922	2037.629639	2114.409912	1844.202515	2036.153198	1811.718628	2045.012451	2037.629639	2334.414795
1388.665039	2059.225586	2134.509033	1812.708984	2057.749512	1755.139282	2022.321899	2100.557861	2308.69458
1386.910156	2117.703613	2176.733643	1822.553223	2039.488647	1818.125977	2094.091553	2125.082275	2349.396484
1385.154297	2193.854004	2140.741211	1897.307617	2077.301025	1817.638306	2055.170654	2087.628418	2339.914307
1383.398438	2206.540283	2141.64209	1864.349487	2091.493408	1915.973145	2137.217041	2094.443359	2349.611328
1381.641602	2158.762207	2211.846436	1896.289795	2108.626953	1893.340576	2031.949707	2120.423584	2405.014404
1379.884766	2167.027832	2186.192139	1935.583496	2118.380371	1858.926636	2134.596191	2056.465332	2405.843262
1378.12793	2141.39209	2225.397217	1938.011475	2106.021729	1821.583374	2097.178955	2092.757568	2414.040283
1376.370117	2161.44458	2165.864746	1890.34314	2139.343994	1826.987915	2093.669189	2108.403076	2397.185059
1374.611328	2156.445313	2293.432617	1926.660156	2113.729004	1879.52478	2162.337402	2213.891602	2449.568848
1372.852539	2205.934326	2228.022949	1996.826904	2157.338867	1940.868652	2124.941895	2180.900146	2398.843018
1371.09375	2234.785645	2280.42334	1940.347412	2186.203125	1940.347412	2199.452881	2190.619873	2507.140869
1369.333984	2272.451904	2266.564697	1953.072266	2153.236572	1904.503052	2201.805664	2153.236572	2575.641602
1367.573242	2285.083984	2332.168701	1924.590942	2261.541504	1990.803955	2229.170654	2320.397461	2602.90625
1365.8125	2365.375	2388.911133	2043.225098	2280.056885	2022.630981	2306.534912	2324.187012	2596.322754
1364.051758	2438.269775	2452.97583	2063.264404	2322.091553	2041.205322	2363.268799	2319.150391	2688.273193
1362.290039	2480.250488	2499.363281	2106.816162	2396.448242	2161.214111	2364.103516	2417.03125	2694.901611
1360.527344	2495.751465	2492.812012	2198.848145	2442.838135	2126.827148	2445.777832	2431.07959	2892.602539
1358.765625	2609.695313	2593.531738	2305.524902	2480.38623	2174.746094	2487.733154	2586.18457	2859.497314
1357.001953	2692.728027	2713.294434	2382.763184	2597.241211	2244.674561	2636.905029	2676.568604	2902.799072
1355.238281	2803.619629	2796.276367	2363.029785	2621.509277	2236.727539	2699.34668	2705.221191	3081.191162
1353.474609	2832.22998	2807.27002	2487.194092	2798.460449	2369.735107	2710.366211	2807.27002	2998.140869
1351.709961	2791.835938	2774.221924	2382.308105	2788.900391	2347.079834	2758.075684	2761.01123	3086.872314
1349.945313	2835.10791	2915.817627	2501.997314	2766.137939	2411.015625	2861.521973	2786.682129	3113.922852
1348.179688	2978.115723	2997.1875	2574.676514	2882.757324	2452.911133	2982.516846	2835.811768	3198.173584
1346.414063	3024.246826	3077.046387	2549.050049	2898.114258	2490.383789	2946.513916	2974.380615	3368.911133
1344.647461	3043.959961	3051.29126	2595.283691	2929.591553	2652.468018	2964.781738	3017.567383	3410.525391
1342.880859	3049.003418	3112.035889	2716.251709	2988.902832	2603.379883	3068.059814	3091.513672	3507.819824
1341.113281	3062.83667	3100.938965	2668.624756	2998.355957	2585.092773	3087.749756	3106.800781	3448.255859
1339.345703	3125.009766	3217.30957	2672.300781	2994.61792	2527.258301	3092.778076	3060.546387	3504.4646
1337.577148	3087.550293	3053.862793	2664.25708	3089.015137	2536.829834	3096.338379	3030.427734	3547.460693
1335.808594	3123.325195	3136.503906	2688.431885	3001.789307	2575.681641	3070.61084	3073.539551	3486.468506
1334.039063	3230.811279	3157.616455	2703.809814	3085.885742	2561.812256	3125.410889	3167.86377	3536.764648
1332.269531	3216.768555	3196.279541	2763.083984	2959.192871	2509.898926	3115.787109	3213.841553	3606.058838
1330.499023	3204.196045	3174.933838	2803.305664	3028.623535	2572.135498	3131.040771	3131.040771	3539.246582
1328.728516	3204.794189	3238.436523	2773.29541	3029.269287	2600.695801	3187.241699	3111.180908	3621.66626
1326.957031	3183.457275	3310.678467	2876.371338	3056.23584	2616.079346	3199.542725	3192.231201	3595.82959
1325.185547	3283.470459	3416.505127	2865.361572	3121.19751	2767.413086	3238.151123	3201.603027	3610.94043
1323.413086	3313.276367	3384.890869	2911.356934	3127.662598	2778.358154	3326.429932	3326.429932	3633.350098
1321.640625	3404.432861	3329.915283	2920.798828	3201.335938	2812.675293	3343.06543	3306.537354	3763.87085
1319.868164	3448.796631	3488.236328	2985.743408	3247.215088	2854.2771	3302.7229	3326.094727	3783.304932
1318.09375	3404.054932	3453.706543	3009.762695	3272.624268	2767.346191	3395.292725	3364.625732	3861.141602
1316.320313	3498.031982	3489.272217	3041.068604	3255.680908	2848.355713	3433.794189	3430.874268	3963.754883
1314.545898	3508.763184	3574.443115	3063.599854	3380.322754	2819.854736	3429.94751	3516.061035	3972.900879
1312.770508	3586.609619	3661.026855	3100.710205	3507.815186	2989.814209	3615.792969	3570.559082	4003.928711
1310.995117	3744.645508	3802.996094	3232.619629	3610.439453	2997.758789	3623.568115	3760.691895	4055.362305
1309.21875	3927.387939	3915.720947	3310.497803	3561.337158	3049.449707	3796.134766	3864.677979	4398.440918
1307.442383	3989.019043	4029.842285	3464.147949	3796.566406	3270.237305	3980.270996	3889.876709	4486.188477
1305.666016	4073.9375	4097.258789	3546.293457	3986.482666	3450.093018	4001.058594	4073.9375	4675.918457
1303.888672	4278.298828	4268.098633	3692.51001	3994.147705	3438.959717	4227.297363	4170.467285	4727.112305
1302.110352	4233.437988	4259.660156	3685.684082	4135.833008	3487.560303	4224.697266	4303.36377	4861.31543
1300.332031	4294.91748	4271.615234	3662.84082	4143.452148	3450.206787	4211.902832	4232.29248	4794.461914
1298.553711	4209.307129	4325.787598	3667.673828	4065.162842	3430.344971	4215.131348	4203.48291	4810.636719
1296.774414	4132.476074	4222.724121	3521.120117	3866.099609	3397.393311	4177.600098	4021.849854	4653.584473
1294.994141	4044.044434	4042.589355	3406.659912	3636.584229	3256.772705	4013.485107	3908.709473	4335.087891
1293.213867	3853.822754	3871.280518	3276.258545	3536.671631	3039.122559	3654.512207	3740.34668	4185.521973
1291.433594	3595.345459	3675.338867	3036.845215	3428.086182	2996.121094	3585.164307	3601.163086	4005.494141
1289.652344	3512.945801	3569.653076	2972.045166	3262.851807	2777.20459	3494.043213	3467.870605	3950.609863
1287.870117	3511.994141	3466.931152	2930.538086	3295.401611	2741.564941	3400.063721	3369.537354	3853.599365
1286.087891	3397.689209	3516.855469	2921.024658	3338.106201	2848.362305	3352.638672	3391.876221	3849.648682
1284.305664	3414.202637	3521.713867	2940.572998	3268.91748	2772.041992	3411.296875	3348.824463	3839.888428
1282.522461	3490.257568	3448.13623	2897.654541	3317.415039	2822.126709	3432.15918	3394.395264	3803.988525
1280.738281	3519.804688	3531.421143	3011.582031	3339.748779	2859.115234	3544.489746	3447.201416	3781.17627
1278.954102	3485.461914	3546.432129	3026.733887	3362.069824	2938.181885	3508.688721	3511.592041	3813.539551
1277.169922	3578.849609	3636.900635	3104.281982	3439.5271	3031.718262	3571.593262	3565.788086	4001.171387
1275.384766	3657.67749	3756.337646	3104.890869	3537.25415	3087.480225	3728.770752	3567.722656	4113.254883
1273.598633	3803.18457	3878.610107	3234.592529	3591.413086	3115.652344	3697.298828	3740.813477	4206.420898
1271.8125	3826.804199	3879.007813	3184.411621	3599.13916	3113.356934	3729.647949	3838.405029	4350.289063
1270.026367	3875.055664	3883.753906	3340.115234	3777.925537	3177.748535	3882.304199	3822.866211	4392.599609
1268.239258	3994.296387	3884.148926	3382.687988	3810.234131	3194.277588	3895.743408	3804.437012	4394.305664
1266.451172	3800.506104	3983.06958	3365.831543	3684.593018	3187.614746	3767.181152	3838.177979	4335.15625
1264.664063	3838.584229	3858.863525	3338.843994	3698.077637	3134.602539	3821.202148	3884.937012	4263.001465
1262.875	3821.612305	3937.462646	3236.568359	3681.143799	3064.240967	3753.550293	3708.658203	4344.386719
1261.085938	3765.560303	3833.60376	3255.957275	3633.816406	3083.676758	3840.842529	3822.021973	4244.760742
1259.296875	3851.377686	3867.298584	3221.783936	3697.959473	3117.575195	3768.87915	3828.220215	4197.29248
1257.506836	3749.044678	3845.990234	3283.127197	3533.449219	3150.007813	3763.51416	3759.17334	4177.341797
1255.71582	3701.736084	3724.880859	3214.246826	3505.004395	3120.220703	3694.503174	3742.239502	4171.866699
1253.924805	3616.852295	3666.021729	3126.603271	3463.559082	2932.817383	3596.605957	3564.790527	4024.670166
1252.133789	3481.412354	3552.255127	2923.345459	3196.595703	2803.34668	3494.424316	3481.412354	3832.734375
1250.341797	3335.927979	3406.751465	2893.642822	3243.424072	2773.676758	3250.650879	3294.012207	3707.389648
1248.549805	3193.412354	3230.981934	2718.012939	3009.899414	2670.328613	3144.282959	3193.412354	3508.418701
1246.756836	3105.868164	3095.756104	2662.37915	2955.630859	2529.476807	3114.535889	3140.53833	3341.336426
1244.962891	3076.13916	3105.023193	2589.444824	2912.945068	2528.788574	2959.15918	3001.041016	3375.087891
1243.168945	2948.247314	2978.567139	2556.976563	2880.388672	2515.106201	2880.388672	2954.022705	3267.328125
1241.375	2883.934814	2992.190674	2476.893066	2872.387451	2491.327148	2901.255859	2901.255859	3267.88208
1239.580078	2903.352051	2982.718018	2531.053467	2782.138428	2444.472168	2865.833496	2802.34082	3183.297363
1237.785156	2844.856445	2934.299072	2443.806641	2704.921875	2342.822998	2736.659668	2792.921875	3126.168213
1235.989258	2786.392334	2818.121582	2463.33252	2633.515869	2359.491699	2773.412354	2743.125488	3136.854736
1234.192383	2689.030273	2876.469238	2409.313477	2670.286377	2387.685791	2689.030273	2637.124023	3049.48999
1232.395508	2692.62207	2786.315918	2297.665527	2642.171387	2195.322998	2632.081299	2653.702881	2973.704102
1230.598633	2648.656738	2749.530518	2262.454346	2572.280762	2191.842529	2609.748291	2614.071289	2959.924316
1228.800781	2607.596191	2683.951416	2319.464111	2528.359863	2204.211182	2575.901855	2590.30835	2848.186768
1227.00293	2629.929932	2676.018311	2259.780762	2439.814453	2264.101807	2537.752686	2608.325684	2837.328369
1225.204102	2597.535645	2727.124268	2341.237793	2486.665039	2244.766113	2577.377197	2604.734863	2963.263916
1223.404297	2631.374756	2711.98584	2311.80957	2579.553467	2183.695557	2591.069336	2627.056396	2956.697998
1221.604492	2724.197998	2646.487305	2275.201904	2614.827148	2296.78833	2649.365479	2594.679932	2988.990723
1219.804688	2606.92041	2619.868652	2290.406982	2486.069824	2263.071777	2575.269043	2576.707764	2903.292236
1218.003906	2597.579346	2604.770996	2308.47998	2481.07666	2204.922119	2616.277344	2568.813232	2878.048828
1216.202148	2553.733154	2592.556885	2246.019775	2451.641357	2136.738525	2497.654541	2491.902832	2785.237061
1214.400391	2524.285889	2599.036865	2255.469482	2532.910889	2182.156006	2517.098145	2607.661865	2839.102783
1212.598633	2650.063965	2687.429199	2322.398682	2526.470947	2195.931641	2479.045654	2535.09375	2936.05249
1210.795898	2660.834229	2731.234375	2305.960693	2581.813965	2182.401367	2570.320068	2649.340332	2872.034424
1208.993164	2642.871582	2797.996582	2322.567139	2496.364502	2278.040527	2604.090332	2583.981445	3012.011719
1207.189453	2581.839844	2703.895752	2158.234375	2525.837646	2202.748779	2584.71167	2520.093994	2958.059082
1205.384766	2550.987793	2625.636963	2230.858154	2493.56543	2190.662598	2513.66333	2542.374512	2861.068359
1203.580078	2573.253418	2669.409668	2167.101318	2425.431396	2121.176025	2468.486328	2504.365479	2850.240723
1201.775391	2552.463379	2598.376221	2221.030518	2477.855225	2140.683105	2493.637695	2486.463867	2843.722656
1199.969727	2507.300049	2636.394287	2201.776611	2485.78418	2151.573242	2481.480957	2445.621582	2804.217041
1198.163086	2498.010498	2572.578125	2100.79541	2489.406738	2178.230713	2492.274658	2460.726807	2905.263672
1196.356445	2531.733887	2475.823486	2167.600098	2441.417236	2113.123291	2474.389893	2417.046143	2818.453613
1194.549805	2496.644531	2440.749512	2159.841309	2356.19043	2148.375488	2429.283936	2407.785889	2678.661865
1192.742188	2442.94751	2408.560059	2079.012939	2288.203613	2038.894165	2305.397461	2355.545898	2733.808838
1190.933594	2445.144043	2429.387451	2052.660645	2313.361328	1940.931641	2287.577637	2319.091064	2637.088623
1189.125	2372.873535	2375.737549	2037.778564	2322.752441	2022.026245	2299.840088	2354.257324	2603.43042
1187.31543	2356.476318	2402.288574	2027.199463	2340.728271	2027.199463	2234.786865	2335.001709	2622.760986
1185.505859	2450.293457	2414.512207	2105.363037	2284.268799	2018.057129	2302.875	2352.96875	2692.174072
1183.696289	2429.590576	2495.409912	2076.169678	2386.665039	2079.03125	2385.234131	2438.175781	2768.703125
1181.885742	2473.269775	2501.878906	2212.925537	2381.720215	2075.601074	2460.395508	2444.6604	2829.454834
1180.074219	2486.893066	2559.82666	2179.427979	2448.28125	2112.2146	2439.700684	2498.33374	2838.69043
1178.262695	2563.414551	2564.844238	2221.721191	2513.375732	2160.245117	2480.493164	2479.063477	2845.061279
1176.451172	2588.439453	2607.020264	2132.496826	2456.945068	2129.638184	2486.959961	2544.131592	2794.256836
1174.638672	2489.136475	2677.750488	2137.62793	2509.140869	2164.7771	2447.698486	2496.280762	2826.355713
1172.825195	2544.165771	2487.025635	2199.89624	2428.457031	2072.759521	2432.742432	2505.596191	2932.718994
1171.011719	2520.618652	2557.749512	2215.002441	2436.359863	2099.325439	2479.203369	2456.353516	2820.522217
1169.197266	2479.951416	2494.228516	2270.076416	2394.288086	2117.310303	2435.692139	2505.650391	2756.929199
1167.382813	2500.681152	2483.553223	2175.250244	2447.870117	2091.037598	2522.091309	2519.236572	2734.763184
1165.567383	2579.904053	2507.130127	2166.092041	2428.648438	2119.00293	2428.648438	2437.210205	2789.663818
1163.751953	2566.357422	2582.049316	2181.189697	2422.276123	2104.15625	2532.120117	2593.46167	2893.036377
1161.936523	2622.699463	2572.783936	2230.506836	2537.130127	2266.160645	2511.459229	2581.34082	2937.879639
1160.119141	2641.94043	2704.674072	2298.331299	2513.621582	2229.894531	2497.938232	2547.840088	2952.756836
1158.302734	2712.483887	2673.998779	2293.424316	2572.797363	2240.685547	2534.312256	2601.304932	2981.879395
1156.485352	2656.165039	2706.039307	2321.294434	2631.94043	2315.594482	2599.165771	2641.915283	3002.435547
1154.666992	2554.289795	2618.396484	2272.220947	2608.424316	2205.265381	2522.948975	2501.580078	2967.420898
1152.848633	2519.407715	2517.983398	2154.812744	2429.683105	2174.751465	2429.683105	2476.681641	2817.065186
1151.029297	2406.234863	2484.544189	2085.878174	2427.592041	2046.011475	2396.268066	2366.368164	2763.610596
1149.209961	2395.609863	2378.528809	2069.647461	2317.322021	2072.494385	2367.141602	2426.925049	2678.869873
1147.389648	2372.18335	2409.181885	2103.231445	2365.068115	2067.655762	2355.106934	2441.911621	2680.979736
1145.569336	2330.274902	2421.323486	2099.808105	2344.501221	2082.736572	2287.595947	2382.912354	2638.986572
1143.748047	2469.014404	2478.969971	2110.608887	2352.390381	2032.38562	2372.301758	2387.946533	2685.195313
1141.926758	2385.868164	2471.179199	2070.216797	2361.696533	2074.482422	2331.837646	2373.071533	2653.17627
1140.104492	2444.91333	2477.606934	2127.92749	2346.83252	2112.291504	2440.64917	2403.691162	2682.297363
1138.282227	2553.663574	2465.557129	2194.132568	2371.766357	2133.026611	2452.767578	2404.451172	2729.876221
1136.458984	2572.850586	2625.415771	2128.177979	2464.878906	2221.942627	2489.030518	2582.79541	2906.710205
1134.634766	2557.939941	2641.736816	2269.621338	2565.04126	2251.157471	2663.04126	2553.678955	2948.519287
1132.811523	2730.463623	2805.718018	2395.367676	2687.866699	2410.986572	2798.618652	2689.286621	3115.255859
1130.986328	2861.726318	2959.672119	2504.010498	2917.086914	2526.722656	2887.277344	2877.34082	3246.412598
1129.161133	3007.107422	3129.151611	2527.446289	2886.482666	2614.012207	2990.078125	2974.467773	3405.87915
1127.335938	3163.758057	3097.078125	2647.342041	2955.205566	2590.593018	2999.186035	2979.32373	3534.045654
1125.509766	3080.623535	3137.356934	2544.49292	2909.005127	2618.246338	3038.073486	3045.165283	3307.557129
1123.683594	3078.357178	3099.626221	2565.061279	2858.575684	2623.197021	2959.249756	2943.652344	3302.392334
1121.856445	2941.424072	2941.424072	2507.652588	2815.261719	2578.530273	2901.732422	2802.503662	3264.626221
1120.02832	2888.178467	2960.453857	2477.201172	2807.400391	2515.4646	2830.074951	2839.995117	3198.537354
1118.200195	2800.959473	2856.213623	2439.682617	2724.453857	2459.517334	2759.873047	2788.20874	3225.991455
1116.37207	2766.194336	2838.429932	2403.600586	2655.716553	2444.675781	2750.614258	2795.938477	3065.051025
1114.542969	2766.8479	2829.151611	2368.954102	2647.904541	2462.409668	2713.040283	2742.776123	3058.542236
1112.712891	2860.93042	2826.955811	2413.600342	2618.862549	2470.224365	2759.00708	2860.93042	3066.192383
1110.882813	2872.878174	2872.878174	2425.671631	2754.000488	2557.286133	2800.702393	2872.878174	3198.376709
1109.052734	2849.44873	3000.834473	2451.884277	2782.952148	2553.751221	2865.011719	2821.152344	3241.354004
1107.22168	2893.924561	3011.322266	2480.910889	2872.708008	2570.02002	2980.204834	2956.159424	3304.109375
1105.389648	2939.789307	3013.319336	2545.272217	2767.276367	2654.15332	2871.915283	2905.852295	3273.502686
1103.557617	2979.973877	2977.146484	2543.156006	2830.126953	2660.489014	2871.122803	2847.09082	3275.426758
1101.724609	2919.794434	3015.895996	2582.025391	2850.544678	2683.780029	2905.661865	2949.4729	3298.548096
1099.891602	2998.109131	3081.468506	2547.403809	2870.950928	2667.497559	2934.530029	2937.355713	3338.610596
1098.057617	3007.168701	3168.191162	2560.825195	2912.532471	2686.535889	2930.894775	3012.818604	3391.363037
1096.223633	3117.893311	3170.140625	2626.486084	2921.612793	2730.980713	3031.755859	3027.519531	3350.887939
1094.388672	3148.089355	3253.966797	2738.696533	3008.331055	2800.811279	3104.32666	3111.385254	3455.839844
1092.553711	3262.947021	3262.947021	2795.803711	3093.589844	2942.579834	3207.906006	3168.389404	3632.709961
1090.71875	3380.562744	3376.329834	2861.344238	3178.80127	2954.465088	3274.743652	3318.482178	3801.016602
1088.881836	3488.239014	3558.765625	2914.153564	3193.438477	3024.175049	3310.512451	3359.880859	3799.966064
1087.044922	3397.025879	3504.196533	2988.085449	3144.611084	2988.085449	3418.177979	3430.869385	3813.01709
1085.208008	3398.90625	3376.350342	2823.728516	3140.922119	2970.342529	3286.126465	3379.169922	3769.67041
1083.370117	3313.404785	3350.04834	2822.947754	3248.574219	2928.649658	3224.615234	3340.182617	3682.657227
1081.532227	3268.810547	3284.309082	2770.035156	3081.41748	2930.657715	3185.681152	3274.446289	3583.010742
1079.693359	3331.292236	3267.90625	2719.968506	3049.576172	2922.803955	3232.69165	3208.74585	3663.717285
1077.854492	3290.941406	3312.064209	2681.194824	3085.345459	2993.813232	3190.959717	3182.510742	3583.844971
1076.014648	3226.679688	3351.973877	2769.144287	3067.598145	2866.282471	3215.417236	3092.938477	3584.260986
1074.173828	3268.008789	3230.008789	2747.266846	3048.452637	2883.785645	3197.638428	3173.712402	3549.491211
1072.333984	3193.939209	3237.556885	2656.456787	3089.81958	2849.21875	3148.914551	3199.567139	3575.241943
1070.492188	3238.067139	3271.826172	2710.580078	2973.620117	2838.583496	3088.964111	3050.984863	3629.11084
1068.650391	3210.45166	3306.076172	2761.860352	2996.702881	2888.422119	3164.045654	3196.389404	3601.387207
1066.808594	3319.218994	3270.01416	2876.375244	3180.039551	2946.667969	3293.913818	3270.01416	3670.682373
1064.96582	3381.54541	3420.898438	2921.95874	3243.810059	3014.719482	3309.866699	3366.085449	3713.234863
1063.12207	3348.291748	3497.229736	2817.173828	3176.872803	3085.542969	3344.07666	3382.013672	3757.168457
1061.27832	3369.838867	3390.90918	2799.536865	3163.350098	2916.125732	3338.935791	3213.918945	3650.775879
1059.433594	3227.071045	3176.516357	2739.780518	3041.703857	2809.995117	3120.344482	3134.387451	3536.015869
1057.588867	3039.456787	3134.922363	2682.864746	2997.3396	2757.271729	3025.417725	2986.108398	3432.550537
1055.743164	3054.052734	3091.947754	2599.313232	2927.736328	2659.664551	2951.595947	3006.333252	3378.265137
1053.897461	3022.336914	3074.252686	2538.257813	2776.789551	2661.733154	2891.846191	2832.914795	3255.256104
1052.051758	2955.569824	2996.249268	2461.805908	2746.562012	2628.731934	2891.043945	2862.989258	3227.701172
1050.204102	2852.378418	3045.902588	2395.212646	2727.569336	2517.217041	2855.183105	2829.940918	3172.114014
1048.357422	2885.234131	2924.489014	2398.753906	2774.479248	2524.930176	2731.018311	2841.773193	3099.733887
1046.508789	2822.76416	2857.803467	2371.458252	2703.630615	2423.316406	2768.102783	2723.252686	3122.700439
1044.661133	2705.682617	2798.160645	2377.805908	2694.473145	2440.859131	2746.316895	2711.287354	3067.1875
1042.811523	2738.550293	2901.042236	2378.546631	2657.304443	2389.75293	2676.915527	2690.92334	2922.054199
1040.961914	2778.401611	2760.196289	2257.451416	2572.542236	2370.884033	2558.538086	2607.552246	2898.836426
1039.112305	2644.628418	2858.830811	2310.024902	2492.026855	2353.425293	2728.629395	2627.828369	2948.431885
1037.261719	2744.666992	2803.451172	2292.587646	2565.514893	2306.583984	2657.890137	2641.094727	2995.200195
1035.411133	2725.714355	2790.079346	2352.11792	2571.79834	2305.943115	2669.744873	2619.372314	3001.364014
1033.55957	2776.714355	2866.240479	2399.025146	2717.962646	2424.204346	2731.951172	2712.367188	3045.293213
1031.707031	2925.577637	2950.75	2472.476807	2726.996338	2478.070557	2854.256348	2866.842529	3209.465088
1029.854492	2993.27002	2968.104736	2559.86792	2811.520752	2445.226074	2903.793457	2940.143311	3307.835938
1028.001953	2895.997559	3088.877686	2459.920654	2767.410889	2475.295166	2800.955322	2856.862549	3207.680664
1026.148438	2842.094971	2941.302979	2455.044678	2692.584717	2415.920654	2835.108643	2761.052002	3194.213135
1024.293945	2799.397461	2858.067383	2381.7229	2730.948975	2388.707275	2782.634521	2701.614014	3099.731934
1022.439453	2698.06958	2783.25708	2252.580811	2596.123779	2371.284668	2651.984375	2632.433105	3008.096191
1020.583984	2652.642578	2693.130371	2215.654785	2524.198975	2295.233887	2584.232422	2614.947266	2883.003662
1018.728516	2660.278809	2686.797852	2212.246582	2622.593994	2251.327393	2579.325928	2563.9729	2875.222656
1016.87207	2567.445313	2702.794189	2207.444824	2580.003418	2326.049561	2591.16626	2599.53833	2912.096924
1015.015625	2731.335938	2741.10083	2300.292725	2618.343994	2353.30127	2668.562744	2664.37793	3014.513428
1013.158203	2790.542236	2771.018066	2351.251465	2733.364746	2507.443604	2706.867676	2690.132813	3101.532227
1011.300781	2830.196289	2905.482422	2424.488525	2700.537109	2488.62085	2784.188232	2746.545166	3164.800781
1009.442383	2922.79248	2929.761475	2397.331055	2738.811279	2462.839355	2784.806641	2876.797119	3158.344238
1007.583984	2802.14502	2885.749512	2388.30249	2835.58667	2510.922607	2774.276855	2782.637207	3213.200439
1005.724609	3040.963623	3021.461426	2567.33667	2910.019775	2717.782959	3017.282227	2988.028809	3470.013916
1003.864258	3513.611084	3519.181641	2939.84668	3345.102539	3072.146729	3598.561768	3524.752197	3946.719727
1002.004883	3504.278076	3541.868652	2920.927979	3242.536377	3076.859375	3376.19165	3441.627197	3920.559082
1000.143555	2918.72168	2883.925293	2378.681641	2676.538818	2778.144287	2814.33252	2858.871826	3247.199707
998.282227	2642.397217	2607.610596	2222.173828	2478.204102	2723.102295	2506.033447	2571.432373	2929.039551
996.419922	2577.67041	2623.576172	2209.034424	2494.205811	2704.258789	2535.938232	2524.80957	2808.589844
994.557617	2574.170166	2606.156006	2183.385742	2453.179932	2853.698975	2590.858398	2558.872559	2884.294189
992.695313	2716.653076	2743.068848	2203.631104	2626.283447	2978.030273	2663.821533	2666.602051	3021.129639
990.832031	2788.170654	2806.239502	2273.901855	2581.073242	3159.278076	2718.674805	2621.380615	3000.827637
988.967773	2792.950439	2752.654053	2333.016846	2627.59668	3222.314453	2688.73584	2687.346436	3161.175293
987.103516	2729.659424	2732.437744	2319.863281	2653.256836	3283.92627	2683.817871	2668.537354	3147.790527
985.238281	2678.9021	2744.173584	2355.322998	2637.239746	3342.725586	2738.618652	2688.623535	3180.241699
983.373047	2732.300293	2654.552002	2281.082031	2587.9104	3401.491699	2698.979492	2728.135254	3196.013916
981.506836	2784.280273	2759.296631	2273.504883	2753.744629	3447.732666	2750.96875	2696.837646	3215.940674
979.640625	2833.455566	2776.564453	2264.544189	2651.681396	3495.335205	2743.262207	2800.15332	3187.290527
977.773438	2835.438232	2857.633301	2327.722656	2696.718018	3424.998535	2782.724609	2827.11499	3187.787109
975.905273	2928.948975	2966.392822	2413.054443	6339.12207	3458.711426	2872.0896	2860.995117	3243.755615
974.037109	2929.516602	2928.130127	2374.946533	3167.981934	3500.723877	2928.130127	2979.427979	3377.332031
972.168945	3052.054932	2989.68335	2487.937744	2882.958496	3509.44751	2978.594971	2937.013916	3520.535645
970.299805	3040.116211	3056.744141	2538.510986	2922.335938	3516.780029	2974.990723	2965.29126	3519.55127
968.429688	3037.880859	3012.946045	2476.849365	2832.861816	3490.861572	2935.371338	2972.773438	3438.22168
966.55957	3043.955322	3039.800781	2495.544922	2856.997314	3458.032959	2926.240967	3014.873047	3487.115234
964.689453	3112.328125	3123.404053	2543.303711	2888.041016	3389.225586	3012.64502	3052.795166	3527.674316
962.817383	3158.516357	3187.58252	2513.525879	2960.590088	3573.746582	3086.543213	3063.013672	3544.68042
960.946289	3229.585449	3244.806396	2622.135498	3023.412354	3403.93335	3153.481201	3183.922852	3647.466797
959.073242	3332.430664	3286.781006	2687.80127	3104.182129	3519.179688	3257.731201	3201.014893	3737.745117
957.201172	3278.946045	3283.094971	2706.409668	3042.463623	3421.388672	3219.479736	3093.632324	3657.871094
955.327148	3210.282715	3211.665283	2653.114746	3073.410156	3366.510986	3197.839844	3105.208984	3604.309814
953.454102	3144.421875	3151.332764	2609.524658	3017.262939	3343.453369	3122.307373	3094.664063	3505.166504
951.579102	3120.050781	3132.486816	2547.995361	2889.294189	3244.410645	3056.489014	2988.781982	3548.401367
949.704102	3095.692871	3040.437256	2507.221191	2842.898682	3076.353516	2964.460938	3014.190918	3423.082031
947.829102	3043.728271	2938.771973	2438.849365	2825.530029	2981.583252	2938.771973	2934.62915	3324.071533
945.953125	2885.484863	2895.14917	2384.321777	2692.198975	2928.283936	2826.118408	2812.312256	3251.3479
944.076172	2823.946045	2870.873779	2371.231201	2723.189209	2799.101807	2861.212158	2883.295654	3266.999023
942.199219	2905.94458	2875.587891	2405.062256	2726.565186	2781.758789	2864.549316	2830.053223	3239.865967
940.322266	2852.710205	2921.682861	2401.628906	2768.563477	2786.496338	2808.567627	2739.594971	3230.68042
938.443359	2875.354004	2931.895752	2447.843506	2727.793945	2813.296143	2898.79834	2782.956543	3267.009033
936.56543	2896.606201	2896.606201	2393.388184	2767.010254	2735.300781	2815.26416	2827.672363	3255.062988
934.685547	2920.602539	2899.928223	2436.821777	2635.295898	2746.937744	2815.852295	2913.711182	3251.392822
932.806641	2963.875977	2893.602783	2441.649414	2733.765625	2764.07959	2852.265381	2815.062012	3239.457031
930.925781	2932.738281	2971.308838	2460.249268	2800.496582	2783.966309	2826.669434	2810.13916	3248.190186
929.045898	2937.423584	3029.691406	2471.952637	2732.230713	2774.921875	2882.338135	2949.817627	3305.11792
927.164063	3068.766113	3082.533691	2507.053955	2838.849609	2753.491455	2977.900879	2947.612549	3382.664063
925.282227	3066.527832	2994.957031	2460.929932	2781.621582	2771.987061	2945.408203	2840.804932	3292.250732
923.400391	2919.813232	2932.197021	2340.528809	2672.138184	2684.521973	2817.991211	2830.375	3265.182129
921.517578	2825.452881	2881.852051	2372.885254	2612.237061	2693.396729	2807.570313	2803.443604	3227.124023
919.633789	2853.538086	2776.526855	2319.960693	2575.747803	2555.119873	2720.143799	2747.647705	3146.455322
917.75	2783.995361	2830.73877	2378.425537	2647.888916	2598.395508	2764.747803	2682.259033	3104.32666
915.865234	2758.4729	2836.815186	2366.761475	2586.669678	2607.285889	2747.477539	2682.879395	3089.709473
913.980469	2719.224121	2845.635742	2291.897705	2533.72876	2517.240234	2640.903809	2730.216309	3024.260742
912.094727	2695.107178	2744.558594	2265.153809	2539.884277	2500.04834	2699.228027	2620.929932	3006.92627
910.208984	2638.045166	2736.920166	2216.452148	2462.266846	2471.879883	2596.847168	2591.354004	2936.043945
908.322266	2662.014648	2681.234863	2195.235352	2497.269043	2417.64209	2467.065674	2554.929932	2884.421143
906.435547	2637.933105	2602.248291	2150.697754	2448.529053	2426.569092	2518.526123	2437.549072	2900.079346
904.547852	2638.562744	2572.70166	2194	2447.839844	2430.002441	2545.259521	2490.375	2858.099854
902.660156	2551.401367	2632.333008	2145.37207	2363.475586	2411.48584	2474.585205	2521.223633	2888.844971
900.771484	2628.849121	2604.165039	2078.943848	2428.634277	2464.289063	2534.227051	2454.689697	2849.634033
898.881836	2584.238525	2617.141113	2140.051025	2403.273193	2411.498779	2517.062012	2496.497803	2815.928711
896.992188	2615.033447	2565.693115	2114.778076	2416.301758	2517.723389	2454.677734	2521.835205	2971.379639
895.101563	2595.114258	2636.219482	2130.624512	2451.245605	2522.494873	2601.965088	2567.710693	2969.172363
893.210938	2676.570313	2654.653809	2261.523926	2509.456055	2531.372559	2577.945557	2656.023438	2962.856445
891.319336	2747.024902	2768.935547	2252.670166	2558.047119	2549.830811	2697.726563	2686.77124	2930.525146
889.427734	2759.940918	2759.940918	2287.629639	2577.861328	2629.884033	2599.765625	2653.157471	3032.375488
887.535156	2872.759033	2767.374512	2328.043457	2603.138672	2534.707031	2622.299561	2661.989746	3078.053955
885.642578	2774.803467	2747.438721	2282.234863	2587.35376	2610.614014	2674.921631	2674.921631	3064.871826
883.749023	2797.274414	2809.585205	2396.491455	2570.209717	2649.545654	2620.820557	2723.410156	3094.100342
881.855469	2818.36499	2877.16626	2346.586182	2651.532959	2698.0271	2726.744141	2793.750488	3117.841797
879.960938	2855.848145	2974.784912	2414.278564	2787.493896	2768.354492	2855.848145	2884.557129	3323.392578
878.06543	3029.980225	3088.748535	2510.633057	2848.20874	2774.406738	2984.878906	2969.845215	3338.85498
876.169922	3044.154541	3061.916504	2515.389648	2803.682617	2840.573242	3014.095459	3011.362793	3413.060059
874.273438	2969.534668	3028.269775	2588.439941	2858.894287	2798.793213	3014.610352	2867.089844	3382.045898
872.376953	3065.649902	3088.864258	2561.763672	2882.666748	2829.410645	2922.267578	2957.771729	3368.801025
870.479492	2963.762207	3051.132568	2461.383301	2810.864258	2793.117188	2926.902832	2963.762207	3288.67041
868.582031	2941.088623	2912.428467	2381.53125	2722.724854	2789.598633	2882.40332	2773.221436	3190.842285
866.683594	2908.876709	2959.359131	2348.113037	2751.971924	2791.539307	2863.851807	2839.292969	3164.017334
864.785156	2873.95459	2951.702881	2457.933594	2768.926514	2748.466309	2777.110352	2878.046631	3152.211182
862.885742	2888.14209	2852.687988	2436.784668	2709.508301	2663.145264	2836.324707	2774.961914	3178.592773
860.985352	2903.684326	2956.850586	2339.306396	2742.822998	2700.562744	2806.89502	2783.719971	3110.895752
859.084961	2898.774902	2924.668945	2414.964355	2665.728027	2744.773193	2787.021484	2780.207275	3183.609863
857.18457	3005.5896	2985.152588	2468.779785	2756.259033	2714.022705	2848.906494	2839.369141	3238.570313
855.283203	2936.635498	2999.291016	2461.270996	2824.945313	2755.479492	2903.945801	2905.307861	3307.120117
853.380859	2984.825684	3152.313477	2558.616455	2788.742188	2810.529297	2982.102295	2945.33667	3302.099609
851.478516	3105.137207	2970.36792	2511.608154	2802.92749	2819.263184	2974.451904	2906.386719	3344.726807
849.575195	3023.964111	3139.642334	2514.97998	2832.074463	2744.975586	3022.603027	3002.189453	3332.892822
847.671875	2948.278564	3106.100586	2477.533691	2771.40918	2706.103516	2899.299316	2906.102051	3255.759521
845.767578	2879.436523	2990.96875	2463.230713	2778.7854	2569.322266	2868.555176	2882.156738	3169.148193
843.862305	2817.431641	2811.992676	2419.020752	2697.772461	2579.4729	2771.199707	2746.723877	3145.134766
841.957031	2760.89917	2769.05542	2297.35083	2565.148438	2494.460693	2599.133057	2766.33667	3051.806152
840.051758	2775.065918	2775.065918	2293.981934	2613.345459	2481.523193	2720.706055	2679.936279	3006.094971
838.144531	2730.803955	2759.334961	2308.276611	2525.654053	2455.006348	2619.398193	2611.246582	2965.843506
836.238281	2758.552979	2696.074463	2257.368164	2432.579102	2398.623535	2609.148193	2620.013916	2956.853516
834.331055	2696.668213	2628.776123	2248.581299	2522.864746	2358.566162	2521.506836	2596.187988	2956.015381
832.422852	2552.013428	2710.835693	2223.509766	2440.702393	2302.241943	2560.158203	2596.80957	2877.80249
830.513672	2606.929688	2693.782227	2216.09375	2435.938965	2293.446777	2521.434326	2551.289795	2876.986328
828.605469	2584.483398	2565.489746	2161.197998	2394.547607	2234.45874	2528.859375	2583.126709	2908.730957
826.695313	2566.118408	2549.842773	2133.45874	2334.191162	2149.734375	2435.913574	2457.614258	2856.366455
824.785156	2523.356934	2488.103027	2071.837402	2302.342773	2143.700928	2380.98584	2402.68042	2759.286133
822.875	2323.37793	2351.843994	2014.317139	2214.935547	2103.782227	2294.911865	2317.955811	2631.083252
820.962891	2310.522217	2345.755859	1948.698486	2183.138428	2042.203491	2322.718506	2223.792969	2614.074707
819.051758	2210.96875	2247.547363	1845.183472	2121.554443	1995.56189	2189.29248	2068.718994	2462.954102
817.139648	2236.073975	2143.976563	1794.547607	1976.033936	1947.592041	2101.990967	2115.534668	2306.501709
815.226563	2094.624023	2114.933838	1819.763794	1961.932861	1857.675537	2072.960205	2030.98645	2327.510498
813.313477	2050.713623	2080.49292	1755.627441	2000.630127	1843.611816	2026.348633	2015.519775	2336.324463
811.399414	2065.016357	2108.31958	1795.72522	2000.061768	1870.152466	1993.295654	1982.469849	2277.472168
809.484375	2125.307129	2115.837402	1760.04126	1931.851563	1814.154663	1985.964966	2033.314331	2241.651367
807.569336	2108.473877	2066.547607	1752.778687	1977.285889	1783.885132	1988.105469	2025.974121	2273.4729
805.654297	2007.821289	2076.776855	1726.591187	1938.865845	1753.632446	2013.229614	1976.723755	2224.152344
803.738281	1995.085327	2115.385254	1726.10022	1942.369629	1785.574341	1939.66626	1945.072998	2261.366943
801.821289	1986.410156	2037.759521	1686.421631	1981.004883	1762.09436	1894.521729	1939.114624	2213.428467
799.904297	1980.441406	1998.003296	1700.802002	1915.597534	1756.189575	1943.966675	1943.966675	2200.640625
797.986328	1889.392456	1901.547241	1667.905396	1789.453125	1684.111816	1824.567017	1862.381836	2083.868896
796.067383	1798.39502	1784.893555	1559.419067	1730.887695	1581.021484	1720.086548	1797.0448	2023.869507
794.149414	1757.390259	1711.498413	1518.482422	1718.247192	1585.970459	1745.242432	1714.197876	1870.770386
792.229492	1767.685059	1725.85437	1460.026855	1686.722412	1549.085815	1678.626099	1700.216187	1921.51416
790.30957	1713.222046	1734.805908	1450.168213	1659.262329	1617.443481	1678.148193	1671.403198	1858.91333
788.388672	1761.284058	1714.082764	1449.755249	1673.624512	1596.753784	1665.532837	1669.578613	1878.613159
786.467773	1764.827148	1828.193726	1466.869263	1671.799561	1615.174072	1654.272583	1663.710205	1883.470947
784.546875	1772.411377	1781.846313	1528.452148	1653.801392	1624.148804	1653.801392	1744.106689	1978.631104
782.624023	1720.703003	1754.389404	1518.584351	1703.186035	1600.779297	1656.025024	1695.101318	1914.736816
780.702148	1753.889404	1740.418701	1555.869629	1644.776489	1609.752563	1660.941406	1728.295044	1935.744263
778.77832	1819.377197	1783.016602	1551.386108	1669.894775	1614.68042	1711.64209	1733.189087	1893.44519
776.854492	1848.477295	1783.854614	1568.445679	1692.305786	1568.445679	1731.348633	1750.196899	1985.800415
774.930664	1847.950073	1830.453125	1542.425903	1717.395752	1619.143433	1732.200928	1752.389648	2047.146484
773.005859	1886.443604	1852.805176	1610.608398	1759.963135	1650.974609	1746.50769	1727.670166	1995.432251
771.080078	1791.744751	1872.453979	1572.484741	1756.770752	1607.45874	1737.938599	1748.699829	2009.659668
769.154297	1884.022583	1959.329712	1635.240234	1800.646851	1639.274536	1815.439331	1779.130615	2056.153076
767.227539	1888.862549	1954.737427	1587.719971	1825.676392	1653.594971	1864.663574	1866.007935	2160.428467
765.300781	1874.883301	1928.643433	1673.282959	1822.467163	1689.411011	1848.003296	1841.283203	2093.955811
763.373047	1956.308838	1958.995972	1639.214722	1859.568237	1723.862793	1914.656616	1855.537354	2176.662354
761.444336	1967.839233	1985.30127	1683.073486	1887.245117	1670.984375	1928.885498	1911.42334	2174.69751
759.515625	1979.362915	2038.448364	1716.164063	1929.677368	1733.621094	1882.677612	1894.763306	2207.647705
757.586914	2036.52356	2062.030518	1733.125854	1941.208374	1782.797119	1930.468628	1941.208374	2205.674561
755.657227	1979.574097	2014.468384	1654.789795	1876.233643	1767.524902	1952.732422	1963.469116	2194.307617
753.726563	1919.973633	1983.033569	1608.699097	1858.255371	1717.376831	1885.089355	1887.772827	2173.554932
751.795898	1931.496704	1903.328979	1664.574585	1875.161377	1702.13147	1809.436768	1888.574463	2088.430664
749.864258	1933.626343	1976.536255	1657.394043	1843.783813	1697.62207	1850.488403	1904.125854	2128.061768
747.931641	1923.689575	1934.41394	1753.439697	1884.813599	1690.433838	1816.445557	1962.565552	2146.220947
745.999023	1979.426392	1974.065796	1651.085571	1928.500122	1766.339844	1876.233521	1925.819702	2161.689209
744.066406	2067.285889	2021.733276	1717.602417	1926.608643	1700.185181	1978.860229	1982.879517	2265.57373
742.132813	2007.760742	2074.730713	1786.759766	1975.615234	1855.069214	1971.597046	2022.494141	2262.246826
740.198242	2067.441895	2083.510254	1720.636597	1964.337646	1768.841187	1989.779053	2058.068848	2242.853271
738.263672	1991.886719	2077.559326	1694.710083	1934.325439	1742.900879	1977.161743	1975.82312	2282.370117
736.328125	1984.625244	1943.139526	1699.577881	1868.19751	1727.681152	1931.095215	1940.463013	2177.333252
734.392578	1965.326782	1989.408447	1641.562988	1852.945923	1672.333862	1893.082031	1860.973145	2170.020508
732.456055	1940.689209	1923.302002	1604.980713	1821.653198	1710.641968	1833.690552	1861.77771	2184.111328
730.518555	1917.402588	1966.875366	1628.588867	1779.681274	1703.466431	1881.300903	1918.739746	2092.562744
728.581055	1903.486084	1962.301636	1636.142578	1844.670532	1660.203491	1833.976685	1807.242432	2090.626465
726.642578	1963.075684	1972.429932	1717.190063	1892.249878	1766.634399	1909.622314	1908.285889	2148.826172
724.704102	2058.701416	2084.084473	1779.487549	1947.817505	1760.784302	1981.216309	2038.662231	2284.477295
722.764648	2275.809082	2191.668213	1855.104858	2055.440186	1868.460571	2131.567627	2155.60791	2433.406006
720.825195	2336.574951	2410.010254	1936.019287	2220.413818	1934.684082	2261.804688	2272.486084	2567.562012
718.884766	2538.794922	2486.737549	2032.904663	2361.266113	2107.653564	2415.99292	2390.631836	2709.649658
716.944336	2451.329346	2499.368408	2128.399658	2355.250977	2163.094727	2391.280518	2384.608398	2779.59668
715.001953	2422.611328	2528.000244	2042.410645	2274.533203	2090.436035	2333.230713	2357.243408	2674.744141
713.060547	2349.898682	2397.910156	1949.802368	2233.87085	1953.803345	2249.874512	2236.538086	2600.625732
711.118164	2117.234863	2215.896973	1881.245972	2075.903564	1871.913086	2053.238037	2045.238281	2367.889893
709.174805	2015.327637	2091.302246	1730.089478	1934.021362	1744.751221	1935.354248	1943.351685	2289.902588
707.230469	1944.126099	2020.078979	1682.954956	1924.13855	1748.247803	1916.143433	1921.473511	2179.979736
705.287109	1962.217529	2011.506104	1749.077759	1863.640381	1809.023315	1936.907104	1946.232056	2215.320801
703.341797	2096.159668	2140.107178	1800.513184	1952.331665	1812.498901	2078.846924	2093.496094	2317.228516
701.396484	2348.515381	2347.184082	2026.326782	2206.060059	2048.959961	2285.94165	2251.326172	2572.183594
699.450195	2475.614014	2571.444336	2089.631348	2337.192627	2152.187012	2402.4104	2423.706055	2736.485352
697.503906	2405.71167	2399.058838	1962.62439	2192.816895	2027.823364	2367.124512	2283.297119	2666.507813
695.556641	2128.336426	2120.355225	1791.793213	1989.994507	1810.416138	1983.343506	1948.758057	2318.556396
693.609375	1918.941406	1908.302856	1646.326782	1747.393677	1710.158447	1820.53418	1813.88501	2142.352539
691.661133	1797.410034	1797.410034	1510.249878	1714.984375	1609.958252	1700.360474	1707.00769	2008.79187
689.712891	1702.529541	1711.833008	1488.550415	1656.012329	1549.687256	1624.114868	1629.43103	1919.166748
687.762695	1617.00415	1683.43811	1432.317505	1624.976196	1537.283325	1610.360718	1619.661499	1884.068848
685.813477	1685.610352	1656.387695	1397.369629	1619.195435	1500.976807	1607.240723	1607.240723	1823.753296
683.863281	1657.238892	1641.303955	1395.639526	1574.908081	1513.823975	1659.894775	1634.664307	1774.095459
681.912109	1689.950073	1630.21106	1415.150635	1577.109741	1535.956177	1575.782227	1602.332886	1749.689087
679.959961	1690.790649	1645.66748	1405.453125	1624.433105	1568.692749	1588.599976	1611.161621	1826.160034
678.007813	1718.165894	1663.768311	1410.355469	1610.69751	1561.607056	1544.359131	1578.855103	1781.850708
676.055664	1587.684937	1709.712524	1427.192139	1550.546143	1566.462769	1530.650391	1585.032227	1765.420776
674.102539	1644.245728	1657.505737	1430.759033	1584.575562	1510.319214	1563.359497	1632.311646	1795.410278
672.148438	1682.214966	1674.26123	1458.184692	1630.515625	1537.722046	1532.419556	1576.165161	1773.682861
670.194336	1672.453369	1677.754395	1415.356689	1631.370972	1582.337036	1592.938965	1599.565186	1754.618286
668.239258	1626.926025	1699.793213	1399.050415	1622.951416	1567.307373	1567.307373	1584.530518	1763.386475
666.283203	1634.403809	1715.196777	1460.897339	1585.398071	1529.770142	1595.993896	1573.477783	1731.090576
664.327148	1672.331055	1680.275635	1374.409912	1578.320435	1508.143433	1574.348145	1600.829956	1795.471924
662.371094	1588.454834	1706.265137	1400.487671	1544.772339	1514.326904	1523.592896	1518.298096	1777.745605
660.414063	1627.696411	1644.899658	1468.896729	1573.439819	1519.183228	1566.823242	1601.229736	1793.112671
658.456055	1635.164307	1664.269165	1436.722046	1520.067871	1522.713745	1546.526733	1590.184082	1791.272217
656.498047	1708.756104	1711.401245	1396.630371	1555.338379	1462.758667	1588.402466	1580.467163	1793.400391
654.539063	1603.810181	1671.241577	1406.804565	1580.010864	1494.068848	1572.077759	1614.387573	1806.10437
652.579102	1629.783081	1631.104858	1455.305054	1616.565063	1550.474854	1591.450806	1625.817627	1797.6521
650.619141	1633.276611	1711.240479	1419.206421	1627.990967	1540.7771	1567.205566	1600.241089	1810.347046
648.65918	1656.583496	1688.288452	1455.785522	1623.557495	1541.653076	1612.989136	1683.004272	1841.529053
646.697266	1678.55603	1718.175781	1509.511841	1642.898193	1587.430664	1683.838623	1711.572388	1877.975342
644.736328	1798.216064	1788.974121	1510.395874	1775.771362	1637.142334	1761.248291	1781.052368	2008.139893
642.773438	1911.207153	1890.088867	1593.112549	1784.497314	1693.424561	1758.099365	1806.935425	1991.720703
640.810547	1768.147217	1778.703247	1483.132446	1727.24231	1663.90564	1739.11792	1756.271606	1966.074097
638.847656	1728.06189	1710.913208	1437.853027	1672.658447	1622.531372	1567.12793	1648.914063	1816.443726
636.883789	1684.043335	1717.012085	1434.799683	1653.712158	1575.905884	1566.674683	1680.087158	1809.324585
634.918945	1717.83374	1727.062256	1443.613159	1621.592896	1608.40918	1636.094849	1604.454102	1841.760376
632.954102	1737.106445	1712.064697	1445.831421	1655.391235	1606.625732	1582.901978	1642.211426	1797.733887
630.988281	1708.93396	1743.191772	1498.117188	1627.242432	1598.255127	1589.03186	1727.380493	1853.870605
629.021484	1772.983276	1784.838257	1431.822266	1663.653687	1612.281982	1629.405884	1707.12207	1960.029053
627.054688	1759.301514	1823.826782	1517.002441	1650.00354	1590.745605	1667.122559	1677.657227	1943.659424
625.087891	1796.96936	1815.39978	1529.727783	1677.171387	1635.044678	1739.045044	1753.526123	1964.159912
623.120117	1845.143799	1853.040283	1500.330933	1817.506104	1671.421265	1799.081055	1768.811157	1953.062378
621.151367	1851.187744	1840.662109	1618.309082	1824.873779	1689.356812	1791.981323	1811.716797	2006.440186
619.181641	1828.290894	1833.552124	1549.443604	1754.633179	1642.831177	1784.885376	1730.957397	1917.732422
617.211914	1685.747925	1792.25769	1542.419922	1706.786865	1634.465454	1688.377808	1692.322632	1906.657104
615.242188	1810.141968	1823.287476	1618.216919	1740.470459	1670.799072	1720.752197	1740.470459	1920.564453
613.271484	1860.869751	1904.237549	1565.180786	1733.39502	1700.540649	1746.536743	1776.762695	1997.543823
611.299805	1915.509399	1960.178345	1630.416504	1803.837036	1685.595703	1824.857788	1827.485352	2078.419678
609.328125	1899.192871	1963.549927	1647.017822	1832.208862	1752.090698	1903.133057	1909.700073	2150.054443
607.355469	2003.684204	1978.736694	1685.930908	1893.389648	1794.912354	1945.910889	1966.919312	2209.830078
605.381836	2038.544312	2022.79248	1705.131348	1854.773438	1785.203003	1933.532349	1962.410645	2151.432129
603.408203	1929.034302	1950.03064	1645.584351	1856.859497	1780.748047	1834.551025	1830.614136	2083.88208
601.43457	1852.384766	1923.226685	1607.06189	1860.256104	1715.948486	1834.018433	1807.78064	2042.608521
599.459961	1908.241699	1900.372681	1584.299683	1752.172485	1722.007813	1746.926392	1803.321167	2005.293213
597.484375	1876.220459	1901.131836	1531.394409	1754.285767	1768.70813	1804.108521	1741.174561	1988.977173
595.507813	1849.460449	1836.353027	1622.70166	1789.16626	1764.262085	1790.477051	1732.804199	2022.47876
593.53125	1885.613281	1951.13147	1654.989258	1803.060425	1763.749512	1838.440186	1808.30188	2034.994751
591.554688	1886.375244	1937.4646	1667.608154	1764.546875	1755.376953	1813.016235	1795.98645	2030.473389
589.577148	1914.638184	1993.214355	1610.810547	1807.250854	1778.439575	1833.442871	1826.894897	2077.028809
587.598633	1898.37085	1987.397949	1610.342163	1856.47583	1780.541016	1804.106934	1813.271484	2114.392334
585.620117	1906.980713	1920.069092	1605.947388	1841.538696	1787.876221	1798.346924	1816.670654	2057.497314
583.640625	1878.948364	1882.873779	1622.490234	1775.580078	1822.68457	1821.376099	1752.02771	2032.038208
581.660156	1916.33606	1913.719849	1627.250488	1806.457397	1786.836182	1809.073486	1805.149292	2062.84082
579.679688	1889.62439	1890.932129	1601.930786	1779.77771	1825.547241	1785.008545	1802.008667	2043.932861
577.698242	1917.835449	1911.298828	1643.298706	1789.718262	1813.25	1813.25	1887.76709	2053.796631
575.716797	1957.792236	1994.386475	1597.077515	1743.454468	1812.722168	1832.326172	1861.078857	2112.010742
573.734375	1958.528687	1993.805786	1671.086182	1831.792725	1847.471313	1806.96814	1874.909058	2149.285889
571.751953	2050.696777	2031.104248	1696.723022	1896.567993	1893.955688	1938.365723	1935.753296	2144.741455
569.768555	2103.637207	2091.88501	1795.469238	1949.553223	1935.189453	1966.528564	2008.313965	2283.836914
567.78418	2052.113037	2147.408447	1746.645752	1968.566406	1986.842285	2031.226318	2066.472656	2294.920166
565.799805	2093.276123	2077.615723	1767.017334	1881.860474	2025.414307	1930.146729	1954.942383	2193.763916
563.814453	2050.916992	2063.963623	1662.129883	1926.974854	1963.505127	1933.498047	1946.544678	2199.647705
561.828125	1994.235352	1972.062622	1675.992432	1947.281372	2013.799438	1951.194214	1965.54126	2158.57373
559.841797	2007.996582	2021.035522	1642.906372	1874.99939	2019.731689	1873.695557	1878.911133	2190.541748
557.855469	2056.94458	2004.803955	1681.532593	1933.110718	2016.535522	1880.970093	1937.02124	2230.311768
555.867188	1996.400269	1997.703369	1657.585571	1919.515381	2031.584839	1892.149536	1905.180908	2172.323242
553.879883	2047.927856	2007.54248	1675.340454	1846.001099	2057.047119	1955.432373	1968.459961	2118.276611
551.890625	2066.865723	2083.796631	1719.132202	1924.907104	2146.310547	1905.371582	2019.980347	2250.500244
549.901367	2079.282471	2132.664063	1721.234375	2029.806641	2162.609863	1999.86084	2010.276733	2361.814697
547.912109	2143.755859	2189.312256	1854.797852	2009.689819	2328.584961	2139.851074	2112.51709	2450.936523
545.920898	2209.492676	2283.662842	1924.522827	2117.105225	2347.42334	2201.685303	2180.865479	2537.40332
543.930664	2275.190674	2354.542725	1871.926514	2143.804688	2428.691406	2275.190674	2241.368652	2505.44165
541.938477	2165.286377	2243.314697	1840.168335	2098.962402	2317.44165	2174.389648	2176.990723	2460.493652
539.946289	2232.258545	2194.555664	1824.029419	1985.240845	2363.567871	2115.250244	2104.849365	2358.367432
537.954102	2174.418701	2162.721191	1752.012207	1963.865234	2248.502197	2008.05542	2054.845215	2313.487793
535.960938	2081.530273	2130.905029	1804.772583	2016.563721	2310.212891	2062.040283	2076.333008	2303.716064
533.966797	2130.281982	2118.591309	1784.760498	1944.531738	2305.640381	2071.829102	2018.572021	2355.000732
531.97168	2095.895996	2120.568848	1777.745728	1916.692993	2258.217529	2025.773071	2017.981567	2328.340332
529.976563	2073.213623	2138.123291	1769.436523	1943.394287	2240.68042	2012.198486	1997.918335	2234.189453
527.981445	2089.478516	2107.647949	1763.727539	1976.568848	2215.366455	1975.270996	2009.01416	2215.366455
525.985352	2049.944092	2100.543945	1742.452393	1963.015991	2219.907715	1961.718628	2040.861938	2256.23584
523.988281	2101.226074	2127.167236	1767.883423	2042.858643	2245.198975	1988.382446	1997.461792	2325.616211
521.991211	2107.094238	2134.324463	1785.519287	1925.559937	2195.268066	2052.634033	1956.680176	2318.451904
519.993164	2122.032715	2072.773438	1772.033447	1963.884888	2198.513916	2058.514404	1980.736694	2300.921143
517.994141	2131.77832	2131.77832	1771.514404	2042.360352	2199.166016	2007.370728	2043.65625	2296.359619
515.995117	2181.679688	2098.765625	1789.132813	2052.126221	2179.088623	2000.304932	1999.009399	2304.755371
513.995117	2151.251953	2193.991943	1765.295776	1955.683472	2168.088867	2100.740723	2068.362061	2247.093262
511.995117	2065.16626	2094.946045	1780.315674	2001.722168	2111.778076	2045.744507	2004.311768	2234.781738
509.994141	2076.210205	2058.088623	1755.200195	1922.177246	2015.373657	2027.023193	2005.018555	2298.846191
507.992188	2093.717773	2084.659668	1735.275269	1952.669922	2048.427246	1924.20166	1943.611816	2247.705566
505.990234	2040.064575	2116.38916	1684.314575	1893.883667	2053.000977	1963.73999	2009.017212	2234.110107
503.987305	2054.985107	2001.96167	1670.887817	1899.794312	2051.105469	2004.548096	1939.885254	2173.964844
501.984375	1962.587891	2050.503662	1707.890991	1910.872803	1953.53772	1965.173584	1905.701294	2160.398193
499.980469	1952.964355	2030.514282	1685.417358	1938.746948	1925.821899	1943.91687	1924.529419	2114.526611
497.976563	2000.199463	1970.480835	1692.675293	1861.942871	1962.728027	1900.706421	1997.615234	2160.422119
495.970703	2028.030518	2048.698242	1674.093994	1925.983154	2033.19751	1919.524414	1999.612183	2261.835205
493.96582	2092.00293	2142.365967	1793.69873	1984.820068	2062.301514	2019.686768	2011.938599	2298.620361
491.958984	2163.68335	2181.75708	1775.098145	2048.786133	2109.462158	2078.478516	2065.568848	2384.440918
489.952148	2237.902588	2263.7146	1898.474365	2101.098877	2107.551758	2191.440918	2132.073242	2403.099365
487.945313	2225.632813	2281.112305	1799.859619	2128.866211	2180.475098	2137.897705	2096.610596	2425.617188
485.936523	2178.544434	2262.384033	1848.344604	2061.168701	2092.124756	2179.834229	2099.864014	2362.991943
483.928711	2108.272705	2197.24585	1787.196411	1908.406006	1989.642212	2052.825928	2030.905029	2326.192139
481.918945	2022.573364	2088.31665	1764.75647	1999.369751	2008.393433	2016.12793	1977.455322	2182.419678
479.90918	2090.279785	2118.631348	1672.739258	1962.697998	1943.367432	1976.873779	1987.18335	2179.200439
477.899414	2029.113525	2101.259766	1757.276733	1945.372314	1935.065674	1998.193726	1922.182495	2170.829346
475.887695	2080.034424	2054.275391	1707.817627	1928.056641	1949.95166	2007.909302	1984.726318	2194.661621
473.876953	2047.23291	2118.049072	1720.190674	1921.05127	1940.364868	1966.116211	1976.416748	2213.329102
471.864258	2005.440186	2129.010498	1728.69458	1911.475464	1965.537354	1995.1427	2045.34314	2226.83667
469.851563	2035.733154	2128.383545	1689.581299	1982.973999	1932.788452	1993.268433	1968.819092	2160.553711
467.837891	2024.842163	1999.113525	1728.963135	1961.807129	1955.374878	2005.545776	1999.113525	2202.369629
465.824219	2042.250488	2042.250488	1702.732788	1967.659424	1929.077881	2040.964355	2015.243408	2242.874512
463.80957	2049.362793	2112.36084	1715.087769	1982.507813	1951.651611	1922.081177	1972.222412	2180.501465
461.794922	2089.888184	2145.155762	1760.852905	1942.079346	1981.923462	1987.064697	2007.629395	2237.697021
459.779297	2167.6521	2107.260986	1747.484741	1951.786255	2005.752686	2076.423096	2039.160522	2246.031738
457.762695	2192.703613	2223.532471	1808.627197	2034.705688	2050.120117	2070.672607	2138.753174	2345.563477
455.746094	2208.750977	2194.625244	1860.744385	2004.569946	2085.471924	2123.996582	2134.27002	2361.565918
453.728516	2150.32959	2220.937256	1751.074341	2043.775879	2033.505615	2063.032471	2061.748779	2241.477783
451.709961	2107.342773	2136.861084	1807.027222	2021.355103	2005.954224	2061.140381	2049.589844	2371.723389
449.691406	2070.796387	2141.362549	1750.041138	2011.777466	2028.456665	2056.683105	2016.909546	2214.494873
447.672852	2072.750488	2079.163818	1713.610596	1957.312622	2011.183594	2008.618408	1941.920898	2276.690674
445.652344	2002.89624	2097.783936	1729.774048	1920.831421	1960.581543	1975.96875	1906.726563	2247.808594
443.631836	2047.170898	2085.627441	1702.34375	1917.700439	1960.002686	1934.36499	1903.599731	2227.916748
441.611328	2067.070313	2104.233887	1785.138794	1978.646362	1995.305908	1946.608643	1922.26001	2222.132568
439.589844	2045.961548	2122.829346	1702.619263	1921.692139	1983.186279	2025.463501	2013.93335	2170.230957
437.567383	2105.552246	2172.151123	1798.172363	1978.758057	2044.076294	2033.830322	2059.445313	2300.226074
435.543945	2208.639893	2239.368896	1820.687622	2030.668457	2093.406494	2125.415771	2072.920654	2364.845215
433.520508	2187.50708	2243.826904	1835.509277	2047.988037	2135.027588	2165.747314	2131.1875	2327.026367
431.49707	2374.963623	2357.049072	1892.549194	2179.182617	2261.077881	2221.409912	2158.70874	2478.612305
429.472656	2398.56665	2463.807617	1927.807983	2228.428467	2305.182617	2316.695557	2257.85083	2514.977051
427.447266	2456.68457	2561.550781	2037.219482	2220.095947	2383.789795	2326.241211	2295.548584	2717.571533
425.420898	2468.742432	2537.780273	2066.021729	2302.540283	2379.249023	2395.869141	2357.514893	2656.678955
423.394531	2473.124268	2485.905273	1993.836548	2264.793945	2382.37915	2323.586426	2327.420898	2653.336426
421.367188	2466.003418	2504.335205	1997.07959	2285.844727	2434.060547	2289.677979	2275.623047	2575.887695
419.339844	2401.40625	2457.609375	1997.765625	2163.820313	2393.742188	2281.335938	2221.300781	2591.730469
417.311523	2335.569824	2367.493896	1960.141968	2140.194092	2387.925293	2304.922607	2283.214111	2543.715088
415.283203	2320.835449	2329.771484	1936.582764	2159.985596	2393.60083	2301.686768	2248.070068	2559.557373
413.25293	2352.052979	2339.291016	1854.331543	2154.240723	2348.224365	2224.432129	2191.250732	2528.169922
411.223633	2258.220459	2336.046143	1818.058838	2103.844971	2346.252686	2151.050537	2165.084717	2495.524902
409.192383	2252.449219	2330.251709	1844.304321	2147.862061	2344.281738	2156.790283	2119.802002	2428.46167
407.161133	2255.606689	2282.383057	1873.084229	2114.073242	2371.638428	2140.849854	2157.425781	2413.71582
405.129883	2282.980957	2239.641357	1901.846802	2082.85376	2370.935059	2179.730713	2228.168945	2503.503418
403.09668	2278.480957	2328.179199	1880.893555	2110.270752	2375.329102	2196.924561	2140.854492	2519.326904
401.064453	2201.368408	2333.858154	1891.801025	2040.852051	2431.95166	2247.230225	2219.203613	2498.196533
399.030273	2214.724365	2254.204834	1854.306274	2045.340576	2331.89209	2210.903564	2126.848633	2454.154053
396.996094	2214.066895	2347.751221	1883.039185	2067.650879	2284.092041	2119.851318	2121.124512	2435.601074
394.960938	2144.678223	2205.772705	1827.74939	2007.215088	2375.055908	2095.038574	2095.038574	2369.964844
392.925781	2168.217285	2152.948242	1806.847778	2007.891479	2224.204102	2025.705444	2080.419922	2341.267578
390.889648	2120.507568	2199.374512	1736.348389	2011.111206	2257.888916	2039.096313	2059.449219	2256.616943
388.852539	2169.472656	2161.842773	1752.364258	1996.525269	2227.969727	2093.172363	2030.860474	2287.738281
